TimeStamp,Delta_TP9,Delta_AF7,Delta_AF8,Delta_TP10,Theta_TP9,Theta_AF7,Theta_AF8,Theta_TP10,Alpha_TP9,Alpha_AF7,Alpha_AF8,Alpha_TP10,Beta_TP9,Beta_AF7,Beta_AF8,Beta_TP10,Gamma_TP9,Gamma_AF7,Gamma_AF8,Gamma_TP10,RAW_TP9,RAW_AF7,RAW_AF8,RAW_TP10,AUX_1,AUX_2,AUX_3,AUX_4,Accelerometer_X,Accelerometer_Y,Accelerometer_Z,Gyro_X,Gyro_Y,Gyro_Z,Optics1,Optics2,Optics3,Optics4,Optics5,Optics6,Optics7,Optics8,Optics9,Optics10,Optics11,Optics12,Optics13,Optics14,Optics15,Optics16,Heart_Rate,HeadBandOn,HSI_TP9,HSI_AF7,HSI_AF8,HSI_TP10,Battery,Elements
2025-11-19 00:27:25.407,,,,,,,,,,,,,,,,,,,,,,,,,,,,,,,,,,,,,,,,,,,,,,,,,,,,,,,,,,/muse/event/connected MuseS-BFCC
2025-11-19 00:27:25.452,0.49202254,0.6244437,0.2883613,0.29301634,0.48322415,0.20991284,-0.2986768,0.3450012,0.59478694,-0.21963625,-0.0014499021,0.25303087,0.9356078,-0.04224786,-0.039579682,0.5718875,0.6326465,-0.54084504,-0.15903215,0.16604292,702.4751,722.6546,726.5489,730.7972,752.0387,760.71234,780.7148,1350.6958,0.08245849609375,0.057373046875,1.02789306640625,-2.639312744140625,-6.228179931640625,2.071075439453125,7.469336957299192,6.902106191736404,8.571449824762178,7.020300884533772,0.0,0.0,0.0,0.0,0.0,0.0,0.0,0.0,0.0,0.0,0.0,0.0,78.42121,1,1.0,1.0,1.0,1.0,92.39
2025-11-19 00:27:25.963,0.57481915,0.97986424,0.14541614,0.7557813,0.59576714,0.6439583,-0.15030162,0.43228492,0.84780973,0.5372889,0.26342398,0.6557993,0.577047,-0.16662444,0.04708717,0.5163081,0.46135783,-0.6163717,-0.21135698,0.22885922,732.12476,729.9121,726.5489,715.13153,556.2626,546.43835,566.79486,899.57886,0.1165771484375,0.0478515625,1.0164794921875,-1.55517578125,1.697235107421875,0.411224365234375,7.426917483251079,6.876318813628019,8.485756383663544,6.969519586104952,0.0,0.0,0.0,0.0,0.0,0.0,0.0,0.0,0.0,0.0,0.0,0.0,78.83629,1,1.0,1.0,1.0,1.0,92.39
2025-11-19 00:27:26.473,0.46990183,0.84335566,-0.070220724,0.62632775,0.53283393,0.46328965,-0.06935032,0.4268745,0.848799,0.5372889,0.26930258,0.66117465,0.5043306,-0.16922392,-0.004918748,0.43192744,0.35585466,-0.6511161,-0.27067834,0.1564398,721.85803,725.9293,727.69946,724.1592,754.9594,757.5261,761.5974,1304.938,0.10980224609375,0.040283203125,1.01898193359375,-1.532745361328125,-2.385101318359375,-1.00189208984375,7.415229239682426,6.8715885845075455,8.466194597429846,6.962408983620628,0.0,0.0,0.0,0.0,0.0,0.0,0.0,0.0,0.0,0.0,0.0,0.0,78.70403,1,1.0,1.0,1.0,1.0,92.33
2025-11-19 00:27:26.987,0.4599664,0.68854815,-0.16207632,0.5421291,0.43339333,0.27890778,-0.057441067,0.3684628,0.8554122,0.5372889,0.24180864,0.6477759,0.5588575,-0.21019794,-0.05109692,0.354124,0.33291844,-0.6634984,-0.23851193,0.06529005,707.6085,746.90533,725.7523,711.7683,768.5009,769.74,752.83527,1160.3186,0.1171875,0.04541015625,1.0194091796875,-1.1962890625,0.1495361328125,0.19439697265625,7.456733185513674,6.915900150203848,8.549751806022458,7.042487184989152,0.0,0.0,0.0,0.0,0.0,0.0,0.0,0.0,0.0,0.0,0.0,0.0,78.47229,1,1.0,1.0,1.0,1.0,92.33
2025-11-19 00:27:27.489,0.4044492,0.425329,-0.25209555,0.56209564,0.22070234,-0.21192095,-0.21645738,0.36987576,0.81335443,-0.14412631,0.17496197,0.59601986,0.5879441,-0.2693789,-0.103725605,0.56673,0.2584804,-0.58514845,-0.18802,0.18542142,735.66504,729.9121,729.38104,722.47754,819.9231,834.4381,833.9071,1450.0,0.1024169921875,0.04681396484375,1.021484375,-0.919647216796875,0.58319091796875,-0.179443359375,7.428595951648666,6.892615215888229,8.495583053191236,6.998084066471163,0.0,0.0,0.0,0.0,0.0,0.0,0.0,0.0,0.0,0.0,0.0,0.0,78.200096,1,1.0,1.0,1.0,1.0,92.33
2025-11-19 00:27:27.990,0.48417553,0.46582118,-0.23538177,0.6223881,-3.9413915E-4,0.031700805,-0.4686274,0.24218762,0.53072095,-0.13700946,-0.18368714,0.38895437,0.67830753,-0.26513106,-0.03263402,0.6618854,0.28406352,-0.39775193,-0.09884869,0.3084295,732.5673,729.29254,732.21326,732.12476,763.279,767.70435,745.75476,1149.7864,0.0699462890625,0.0523681640625,1.022705078125,0.76263427734375,9.443206787109375,-0.55328369140625,7.408545883699306,6.864142288343705,8.461586438738287,6.956885296712205,0.0,0.0,0.0,0.0,0.0,0.0,0.0,0.0,0.0,0.0,0.0,0.0,78.03758,1,1.0,1.0,1.0,1.0,92.33
2025-11-19 00:27:28.491,0.43978703,0.4848179,-0.11731639,0.6348395,0.081420675,0.05766028,-0.59098876,0.26332954,0.5452725,-0.1524169,-0.2517762,0.3749213,0.5902577,-0.21994299,-0.0044387304,0.64339566,0.2766567,-0.35831282,-0.15830463,0.32907462,731.0627,732.39026,721.94653,732.03625,833.02203,826.38403,832.13696,1441.6804,-0.016357421875,0.115966796875,1.0244140625,4.71038818359375,3.566436767578125,-9.084320068359375,7.437201916887204,6.88910569105691,8.528481033783946,7.005255704169945,0.0,0.0,0.0,0.0,0.0,0.0,0.0,0.0,0.0,0.0,0.0,0.0,78.06433,1,1.0,1.0,1.0,1.0,92.33
2025-11-19 00:27:28.992,0.34301803,0.33523682,-0.04201194,0.47811583,0.085551105,0.0026350564,-0.5800617,0.11836645,0.49716932,-0.17982198,-0.36674973,0.38359106,0.539805,-0.24295881,0.005429412,0.44486845,0.24398999,-0.3879506,-0.16290626,0.2310713,739.11676,725.48676,727.1684,726.4603,752.2157,751.8617,760.80084,1353.5281,-0.075927734375,0.086181640625,1.03326416015625,-7.155303955078125,3.461761474609375,-14.333038330078125,7.4549936819016285,6.898779772548458,8.557625348687505,7.021185895143409,0.0,0.0,0.0,0.0,0.0,0.0,0.0,0.0,0.0,0.0,0.0,0.0,78.149956,1,1.0,1.0,1.0,1.0,92.33
2025-11-19 00:27:29.493,0.16354315,0.10566423,-0.080236346,0.35865235,0.12623346,-0.23807241,-0.4057804,0.0608819,0.5687677,-0.14884083,-0.43659356,0.32727677,0.46920204,-0.28886104,-0.038275816,0.25913024,0.16744949,-0.4977777,-0.30397218,0.11430454,725.48676,727.2569,722.03503,729.29254,801.5138,806.2046,812.4885,1395.3031,-0.1279296875,0.05596923828125,1.01171875,-6.258087158203125,-2.415008544921875,-7.394561767578125,7.47232768280762,6.909552487900245,8.59275111460792,7.04093078702048,0.0,0.0,0.0,0.0,0.0,0.0,0.0,0.0,0.0,0.0,0.0,0.0,78.20663,1,1.0,1.0,1.0,1.0,92.33
2025-11-19 00:27:29.994,0.28571215,0.24944061,-0.19338839,0.3316402,0.04588795,-0.28948954,-0.41750568,-0.076992065,0.5782761,-0.23471463,-0.1738682,0.3186913,0.5035096,-0.37062216,-0.0736343,0.38889045,0.09274174,-0.5707631,-0.2530067,0.25939432,722.30054,729.29254,727.4339,727.0799,757.9686,760.71234,768.8549,1363.3523,-0.1063232421875,0.0487060546875,0.99725341796875,0.545806884765625,2.22808837890625,-7.364654541015625,7.506934649405145,6.936743675941158,8.672493622296926,7.099280452042057,0.0,0.0,0.0,0.0,0.0,0.0,0.0,0.0,0.0,0.0,0.0,0.0,78.252106,1,1.0,1.0,1.0,1.0,92.33
2025-11-19 00:27:30.495,0.38931963,0.36393663,-0.2413439,0.34567016,0.16729574,-0.19909638,-0.45286784,-0.11495316,0.6012637,0.003371784,-0.16582176,0.11451964,0.52456456,-0.30994174,-0.029063396,0.35715616,0.06932724,-0.6070924,-0.25250953,0.29101765,715.6626,727.87646,730.1776,726.7259,820.1001,814.08167,819.6576,1450.0,-0.1053466796875,0.074462890625,1.037109375,-2.43743896484375,0.4486083984375,-3.887939453125,7.510444174236464,6.927130629664068,8.674965548482465,7.083136637817991,0.0,0.0,0.0,0.0,0.0,0.0,0.0,0.0,0.0,0.0,0.0,0.0,78.308716,1,1.0,1.0,1.0,1.0,92.33
2025-11-19 00:27:30.995,0.38331914,0.5728872,-0.21232104,0.3888799,0.15935758,-0.09696361,-0.5984605,0.113419145,0.5705909,0.06730651,-0.072027825,0.18169488,0.5723555,-0.24811743,0.03306501,0.4151985,0.19420211,-0.6751974,-0.19099861,0.34081683,701.1475,724.3362,729.02704,719.3798,748.1444,753.01227,756.3755,1248.0284,-0.1502685546875,-0.0386962890625,1.0045166015625,-9.188995361328125,4.897308349609375,-0.28411865234375,7.504767899291896,6.91852466442553,8.669655484824643,7.073584626755358,0.0,0.0,0.0,0.0,0.0,0.0,0.0,0.0,0.0,0.0,0.0,0.0,78.534386,1,1.0,1.0,1.0,1.0,92.33
2025-11-19 00:27:31.497,0.5840425,0.87307084,-0.2980721,0.36295426,0.38161615,0.3064701,-0.64908403,0.38126352,0.49286407,0.29099625,-0.12430623,0.4302345,0.5730244,-0.2376989,0.055475216,0.4159606,0.2827822,-0.6923608,-0.19238855,0.2799325,729.6466,724.60175,730.1776,729.29254,353.76,346.05994,388.6315,856.2107,-0.14459228515625,-0.01409912109375,1.0250244140625,3.790740966796875,7.117919921875,-0.441131591796875,7.466376749397993,6.87415206351477,8.60746060129223,7.0047369048470545,0.0,0.0,0.0,0.0,0.0,0.0,0.0,0.0,0.0,0.0,0.0,0.0,78.84495,1,1.0,1.0,1.0,1.0,92.33
2025-11-19 00:27:31.998,0.8713683,1.3751993,-0.3712759,0.47869214,0.46990415,0.7776415,-0.49084884,0.3978195,0.6925542,0.38892114,-0.13989066,0.5445715,0.5335847,-0.24381399,-0.03379402,0.47891602,0.29971784,-0.72103256,-0.25591505,0.26112822,730.6202,720.53046,733.45233,733.5409,559.0063,550.06714,550.15564,859.751,-0.1395263671875,-0.03387451171875,1.0093994140625,4.47113037109375,-17.33123779296875,-10.818939208984375,7.532783062727988,6.920142097608659,8.732155544429345,7.089881029015569,0.0,0.0,0.0,0.0,0.0,0.0,0.0,0.0,0.0,0.0,0.0,0.0,79.145706,1,1.0,1.0,1.0,1.0,92.33
2025-11-19 00:27:32.422,,,,,,,,,,,,,,,,,,,,,,,,,,,,,,,,,,,,,,,,,,,,,,,,,,,,,,,,,,/muse/elements/blink
2025-11-19 00:27:32.500,1.064208,1.4898567,-0.3737876,0.60075504,0.6412076,0.8994249,-0.4596351,0.4414304,0.83178,0.42507094,-0.09289619,0.5445715,0.41723928,-0.33177164,-0.1176456,0.49317303,0.23496862,-0.7811788,-0.35795107,0.24281444,733.8064,725.7523,725.30975,746.55133,369.95667,365.97388,410.6696,909.9341,-0.24951171875,-0.00897216796875,0.97711181640625,-2.160797119140625,14.048919677734375,0.3289794921875,7.496985909448537,6.878943327849701,8.672707245547528,7.0260687123000265,0.0,0.0,0.0,0.0,0.0,0.0,0.0,0.0,0.0,0.0,0.0,0.0,80.05858,1,1.0,1.0,1.0,1.0,92.31
2025-11-19 00:27:33.002,1.231695,1.6213382,-0.15212445,0.7183223,0.65304404,0.97604674,-0.40191346,0.19059397,0.83178,0.4584671,-0.024414638,0.46449962,0.4240368,-0.22874436,-0.17519777,0.46595433,0.12996194,-0.79637426,-0.46565068,0.18487097,650.16785,719.2028,731.0627,627.68726,755.6675,755.1364,770.62506,1349.8993,-0.2994384765625,-0.05718994140625,0.9915771484375,-6.258087158203125,20.4864501953125,-0.142059326171875,7.531165629544859,6.910742674582171,8.738777865198006,7.083350261068593,0.0,0.0,0.0,0.0,0.0,0.0,0.0,0.0,0.0,0.0,0.0,0.0,81.040115,1,1.0,1.0,1.0,1.0,92.31
2025-11-19 00:27:33.101,,,,,,,,,,,,,,,,,,,,,,,,,,,,,,,,,,,,,,,,,,,,,,,,,,,,,,,,,,/muse/elements/blink
2025-11-19 00:27:33.505,1.2215947,1.2581415,0.042951714,0.7535794,0.6680743,0.5534254,-0.36351302,0.20589416,0.83178,0.16850379,0.025953567,0.31132618,0.4211433,-0.17407864,-0.15512973,0.30556473,0.054197334,-0.7580214,-0.36575752,0.12139803,719.5569,704.42224,723.9822,690.5268,813.3736,818.9495,816.5599,1433.7148,-0.54241943359375,-0.11376953125,0.8370361328125,-2.97576904296875,6.05621337890625,-5.57769775390625,7.669166249433755,7.021918317716901,9.00223636840474,7.277014996542928,0.0,0.0,0.0,0.0,0.0,0.0,0.0,0.0,0.0,0.0,0.0,0.0,82.006256,1,1.0,1.0,1.0,1.0,92.31
2025-11-19 00:27:34.007,1.2215947,1.2512023,0.4397225,0.7535794,0.6680743,0.5284146,-0.06680832,0.20589416,0.83178,0.1854032,0.13975175,0.31132618,0.4211433,-0.1838715,7.424884E-4,0.30556473,0.054197334,-0.6212298,0.07763942,0.12139803,708.5821,714.689,719.9994,727.61096,764.87213,764.5181,783.901,1359.989,-0.65289306640625,-0.12005615234375,0.76708984375,0.79254150390625,-0.0,0.5682373046875,7.72196170993968,7.058814104856591,9.111672507927425,7.344733566983764,0.0,0.0,0.0,0.0,0.0,0.0,0.0,0.0,0.0,0.0,0.0,0.0,83.2161,1,1.0,1.0,1.0,1.0,92.31
2025-11-19 00:27:34.509,1.2215947,1.0017571,0.5028978,0.7535794,0.6680743,0.3423714,0.06911767,0.20589416,0.83178,0.027325738,0.22725785,0.31132618,0.4211433,-0.21307771,0.060368106,0.30556473,0.054197334,-0.522144,0.38676107,0.12139803,691.0578,717.78674,720.0879,715.7511,813.0196,822.9323,829.30475,1414.8629,-0.58770751953125,-0.075439453125,0.82696533203125,1.57012939453125,-17.2265625,0.91217041015625,7.712287628448132,7.051734019979496,9.099465465035882,7.3407052428295545,0.0,0.0,0.0,0.0,0.0,0.0,0.0,0.0,0.0,0.0,0.0,0.0,84.00055,1,1.0,1.0,1.0,1.0,92.31
2025-11-19 00:27:35.011,1.2215947,0.862986,0.55818206,0.7535794,0.6680743,0.21738316,0.08657086,0.20589416,0.83178,0.0132084,0.19770423,0.31132618,0.4211433,-0.233672,0.13351531,0.30556473,0.054197334,-0.46437165,0.5373943,0.12139803,709.0246,720.79596,728.14197,715.9281,752.3042,760.62384,773.9883,1358.1304,-0.54376220703125,-0.03802490234375,0.83062744140625,-1.86920166015625,3.850555419921875,3.805694580078125,7.673713372910855,7.02381040936509,9.025368714684214,7.2966073003838545,0.0,0.0,0.0,0.0,0.0,0.0,0.0,0.0,0.0,0.0,0.0,0.0,84.38244,1,2.0,1.0,1.0,2.0,92.31
2025-11-19 00:27:35.521,1.0483296,0.7646092,0.5098239,1.0636643,0.6408332,0.0688914,-0.13775764,0.62671053,0.45392346,-0.06362676,0.16344367,0.2566763,0.38284874,-0.1507484,0.12734853,0.50376153,0.66935456,-0.44945422,0.57484585,0.5837765,709.64417,727.87646,725.30975,718.14075,755.756,755.933,756.0215,1360.874,-0.363525390625,-0.07806396484375,0.98199462890625,-7.85064697265625,-0.725250244140625,-5.72723388671875,7.6160045776410845,6.972327205970007,8.913094437689246,7.205359654769568,0.0,0.0,0.0,0.0,0.0,0.0,0.0,0.0,0.0,0.0,0.0,0.0,84.92155,1,1.0,1.0,1.0,1.0,92.31
2025-11-19 00:27:36.023,1.028273,0.8598093,0.4879297,1.2623742,0.7436508,-0.0011716553,-0.19761819,0.6870629,0.7051046,-0.16827454,-0.051143676,0.652712,0.52615255,-0.101940304,0.16485775,0.51799786,0.6171212,-0.47203818,0.50660825,0.5258397,802.3103,737.7007,736.37305,781.2458,763.279,766.0227,769.1204,1357.0684,-0.20751953125,0.083740234375,1.06854248046875,7.28240966796875,-53.13018798828125,1.4654541015625,7.677894285101209,7.032721550675918,9.043007891662494,7.322272608063324,0.0,0.0,0.0,0.0,0.0,0.0,0.0,0.0,0.0,0.0,0.0,0.0,85.00177,1,1.0,1.0,1.0,1.0,92.31
2025-11-19 00:27:36.525,1.0605648,0.87971175,0.64503443,1.350434,0.7601825,0.027253848,-0.12405527,0.68985033,0.7051046,0.10636606,-0.050490685,0.652712,0.5837203,-0.08032894,0.1503843,0.52656066,0.5840527,-0.5075253,0.3915808,0.4667851,724.51324,728.67303,725.48676,711.5913,772.39514,786.6447,774.78485,1450.0,-0.17767333984375,0.001708984375,0.991943359375,-7.693634033203125,0.538330078125,-3.5888671875,7.636664997735021,6.987647044798893,8.963967288939752,7.246863600600816,0.0,0.0,0.0,0.0,0.0,0.0,0.0,0.0,0.0,0.0,0.0,0.0,85.00177,1,1.0,1.0,1.0,1.0,92.31
2025-11-19 00:27:37.026,1.0009134,0.7454954,0.6592983,1.4403954,0.7819285,0.029303242,-0.10786178,0.7199034,0.67944217,0.10885257,0.040743925,0.652712,0.61803126,-0.07809133,0.17871614,0.52584875,0.5433128,-0.39709458,0.45793706,0.40608585,707.697,714.24646,728.85004,720.1764,742.65704,747.8789,742.0375,1245.9043,-0.19207763671875,-0.02008056640625,1.00408935546875,-3.050537109375,2.52716064453125,2.093505859375,7.604316334072432,6.958106001001359,8.902352239944687,7.1960823021719955,0.0,0.0,0.0,0.0,0.0,0.0,0.0,0.0,0.0,0.0,0.0,0.0,85.00177,1,1.0,1.0,1.0,1.0,92.31
2025-11-19 00:27:37.527,1.0018252,0.6831611,0.60202056,1.4403954,0.8452297,0.058301773,-0.19558324,0.7199034,0.677865,0.08582415,0.13598768,0.652712,0.65690994,0.13505118,0.24881016,0.52584875,0.5415277,0.110139266,0.562987,0.40608585,697.07623,732.5673,723.8052,743.01105,557.6787,546.08435,550.5982,955.7804,-0.2005615234375,-0.03369140625,1.000732421875,-1.099090576171875,-0.37384033203125,1.48040771484375,7.584724030231505,6.9341801969339345,8.868630283956799,7.162390863791336,0.0,0.0,0.0,0.0,0.0,0.0,0.0,0.0,0.0,0.0,0.0,0.0,85.00177,1,1.0,1.0,1.0,1.0,92.29
2025-11-19 00:27:38.028,0.13595085,0.57545304,0.27707654,1.4403954,0.16455507,-0.004235334,-0.17700693,0.7199034,0.62754923,0.06496338,0.091554545,0.652712,0.81380177,0.17008427,0.37557763,0.52584875,0.70739824,0.2346274,0.68591106,0.40608585,734.4259,728.14197,719.3798,701.8556,754.6939,761.8629,762.1284,1262.278,-0.2022705078125,-0.00537109375,1.01904296875,-1.00189208984375,-0.859832763671875,0.7177734375,7.544349235867725,6.891821758100279,8.798775481009942,7.096137138497484,0.0,0.0,0.0,0.0,0.0,0.0,0.0,0.0,0.0,0.0,0.0,0.0,87.027115,1,1.0,1.0,1.0,1.0,92.29
2025-11-19 00:27:38.529,0.40076044,0.5040622,0.0020000194,1.4403954,0.15662827,-0.15814595,-0.01775819,0.7199034,0.69046164,-0.09375699,0.092487395,0.652712,0.6889218,0.15335667,0.39506263,0.52584875,0.5675399,0.19657296,0.6219502,0.40608585,718.9373,729.5581,732.5673,708.5821,566.2638,562.9006,567.94543,986.7576,-0.21136474609375,-0.00946044921875,1.0018310546875,-0.844879150390625,-0.381317138671875,2.64678955078125,7.520026702906325,6.873267052905133,8.769753236535298,7.072760651360179,0.0,0.0,0.0,0.0,0.0,0.0,0.0,0.0,0.0,0.0,0.0,0.0,89.22546,1,1.0,1.0,1.0,1.0,92.29
2025-11-19 00:27:39.029,0.558399,0.25939745,0.13364273,1.4403954,0.10944736,-0.17200482,0.02587633,0.7199034,0.6278041,-0.08636036,0.022008836,0.652712,0.5695095,-0.09457495,0.34402657,0.52584875,0.38088074,-0.10089961,0.54985183,0.40608585,758.41113,741.4179,732.5673,743.5421,771.06757,773.5458,756.55255,1157.221,-0.226318359375,-0.00982666015625,0.98443603515625,-1.03179931640625,4.0374755859375,2.758941650390625,7.5775829101399514,6.9287175452399685,8.875069499082088,7.167609374627471,0.0,0.0,0.0,0.0,0.0,0.0,0.0,0.0,0.0,0.0,0.0,0.0,90.68044,1,1.0,1.0,1.0,1.0,92.29
2025-11-19 00:27:39.530,0.6547444,0.7040126,0.35689083,1.4403954,0.13791025,-0.29188594,-0.007698082,0.7199034,0.6239628,-0.068040825,-0.068392485,0.652712,0.47633526,-0.15397096,0.26692343,0.52584875,0.28315312,-0.30608395,0.4423445,0.40608585,751.2421,728.67303,724.60175,717.52124,771.59863,770.71356,773.8113,1413.0044,-0.231689453125,-0.0135498046875,1.0050048828125,-0.64300537109375,1.07666015625,1.428070068359375,7.553596070858069,6.9073857377869965,8.837471806976135,7.136450897646807,0.0,0.0,0.0,0.0,0.0,0.0,0.0,0.0,0.0,0.0,0.0,0.0,91.93567,1,1.0,1.0,1.0,1.0,92.29
2025-11-19 00:27:40.031,0.70396847,0.8584713,0.38534892,1.4403954,0.12239934,-0.062892765,-0.10382076,0.7199034,0.5600287,0.14889608,-0.12497833,0.652712,0.49812153,-0.14090219,0.30866256,0.52584875,0.25552842,-0.30848727,0.47121388,0.40608585,724.86725,729.9121,724.4247,727.61096,768.5009,772.9262,746.72833,1150.4059,-0.22235107421875,0.02923583984375,1.00640869140625,-0.1495361328125,-0.10467529296875,3.730926513671875,7.521430512838853,6.876990200987054,8.77823713134492,7.083777507569797,0.0,0.0,0.0,0.0,0.0,0.0,0.0,0.0,0.0,0.0,0.0,0.0,93.551895,1,1.0,1.0,1.0,1.0,92.29
2025-11-19 00:27:40.532,0.70396847,0.9247808,0.29510272,1.4403954,0.12239934,0.034491513,-0.096837,0.7199034,0.5600287,0.18963791,-0.1806298,0.652712,0.49812153,-0.1295312,0.32927388,0.52584875,0.25552842,-0.3434578,0.42785862,0.40608585,734.60297,737.4351,732.03625,726.8144,758.41113,774.87335,763.54456,1450.0,-0.22833251953125,0.02239990234375,1.00311279296875,-1.77947998046875,0.740203857421875,-1.114044189453125,7.514533533605131,6.876990200987054,8.771370669718427,7.085517011181842,0.0,0.0,0.0,0.0,0.0,0.0,0.0,0.0,0.0,0.0,0.0,0.0,94.93788,1,1.0,1.0,1.0,1.0,92.29
2025-11-19 00:27:41.034,0.70396847,0.6989013,0.17224018,1.4403954,0.12239934,0.024701675,-0.06671022,0.7199034,0.5600287,0.17419207,-0.17606887,0.652712,0.49812153,-0.18392257,0.23589365,0.52584875,0.25552842,-0.50682473,0.3480074,0.40608585,726.1948,731.2397,729.7351,735.488,754.42834,755.2249,773.0147,1342.8187,-0.23187255859375,0.0181884765625,0.99365234375,-0.530853271484375,-0.336456298828125,1.024322509765625,7.521522065660539,6.891058817919557,8.796639248503922,7.115820995160099,0.0,0.0,0.0,0.0,0.0,0.0,0.0,0.0,0.0,0.0,0.0,0.0,95.8552,1,1.0,1.0,1.0,1.0,92.29
2025-11-19 00:27:41.535,0.49012387,0.48556802,0.09423666,0.5028462,0.07144123,-0.03516384,-0.09727779,6.104105E-4,0.69289744,0.18761466,0.069271065,0.2736426,0.47089663,-0.2226076,0.04266003,0.39234588,0.5925769,-0.5312631,0.18556854,0.2995242,705.9269,723.4511,725.04425,713.53845,577.94666,553.9614,569.096,986.5806,-0.24346923828125,0.0399169921875,0.98809814453125,-1.009368896484375,-0.426177978515625,0.5084228515625,7.533576520515938,6.905280022888205,8.812386333834013,7.137061249791383,0.0,0.0,0.0,0.0,0.0,0.0,0.0,0.0,0.0,0.0,0.0,0.0,96.59103,1,1.0,1.0,1.0,1.0,92.29
2025-11-19 00:27:42.037,0.32597485,0.21076207,0.14258257,0.42221665,0.13636293,-0.15927829,-0.054913267,-0.045658723,0.7321159,-0.10818677,0.076618165,0.33637255,0.547581,-0.25922933,-0.16454184,0.31699634,0.5625759,-0.54891443,0.1692636,0.43513077,728.319,725.6638,719.4683,724.86725,761.5089,764.34106,762.3054,1311.1335,-0.23382568359375,0.02947998046875,1.0015869140625,-1.7645263671875,-1.173858642578125,-0.777587890625,7.500068187778652,6.879034880671387,8.746987101542569,7.091254321340867,0.0,0.0,0.0,0.0,0.0,0.0,0.0,0.0,0.0,0.0,0.0,0.0,97.119156,1,1.0,1.0,1.0,1.0,92.29
2025-11-19 00:27:42.538,0.33348146,0.014675899,0.034006905,0.36576715,0.042216,-0.113527335,-0.019857513,-0.17411378,0.7321159,-0.14405519,0.03048352,0.33637255,0.5482451,-0.2543696,-0.08012642,0.26530978,0.54323375,-0.55861413,0.13605481,0.45779008,723.0086,724.69025,740.44434,742.74554,779.8297,787.6183,763.0135,1308.2128,-0.24072265625,0.0316162109375,0.9930419921875,-1.188812255859375,0.299072265625,-0.418701171875,7.473487351882317,6.856818062608778,8.693459218463152,7.052771618625277,0.0,0.0,0.0,0.0,0.0,0.0,0.0,0.0,0.0,0.0,0.0,0.0,96.63009,1,1.0,1.0,1.0,1.0,92.29
2025-11-19 00:27:43.039,0.24898115,-0.066144355,-0.014973121,0.24622147,0.08419034,-0.14637122,-0.056952205,-0.18344562,0.97630525,-0.02759977,0.021740964,0.6190115,0.5491339,-0.25662264,0.08985825,0.28776875,0.49127892,-0.5483971,0.19361341,0.5088842,718.49475,724.86725,733.9834,726.7259,751.7732,749.2065,747.6134,1240.5054,-0.23443603515625,0.03759765625,0.986328125,-1.457977294921875,-0.4486083984375,0.291595458984375,7.505927568366593,6.889166726271368,8.753212693417257,7.109198674391436,0.0,0.0,0.0,0.0,0.0,0.0,0.0,0.0,0.0,0.0,0.0,0.0,95.88665,1,1.0,1.0,1.0,1.0,92.29
2025-11-19 00:27:43.541,0.2396622,-0.07906076,-0.088477574,0.21034867,-0.06977282,-0.13765103,-0.15364832,-0.090989895,0.9811184,-0.06205697,-0.0809219,0.89803964,0.4621052,-0.29367203,0.2601032,0.37203267,0.45682287,-0.42796162,0.3470748,0.5262355,734.1604,734.51447,735.93054,735.93054,558.1212,527.0555,544.2257,963.569,-0.2420654296875,0.0367431640625,0.99310302734375,-1.21124267578125,-0.6878662109375,0.411224365234375,7.4907908351810795,6.876929165772596,8.711647712371551,7.080664711632454,0.0,0.0,0.0,0.0,0.0,0.0,0.0,0.0,0.0,0.0,0.0,0.0,94.49611,1,1.0,1.0,1.0,1.0,92.26
2025-11-19 00:27:44.042,0.1340614,-0.066583686,-0.2667843,0.16793464,0.008368769,-0.15895778,-0.38997146,0.024597554,0.97892386,-0.06537153,-0.07561685,0.8981954,0.4372447,-0.32150474,0.3499328,0.44587734,0.39782104,-0.25705755,0.4693493,0.5423454,730.3546,727.61096,720.61896,723.5397,751.7732,761.6859,743.5421,1183.5958,-0.2471923828125,0.0345458984375,0.99029541015625,-1.51031494140625,-0.351409912109375,1.00189208984375,7.453772977612474,6.847388121975062,8.634834894976516,7.023261092434971,0.0,0.0,0.0,0.0,0.0,0.0,0.0,0.0,0.0,0.0,0.0,0.0,93.94118,1,1.0,1.0,1.0,1.0,92.26
2025-11-19 00:27:44.544,0.17821044,-0.009615742,-0.34704792,0.07199852,-0.071234286,-0.12227201,-0.40645796,0.032136206,0.9475164,-0.23732902,-0.14527652,0.881627,0.38516805,-0.33868855,0.3225658,0.42834315,0.43172795,-0.24909404,0.51921797,0.579156,739.11676,734.77997,727.69946,738.58575,787.9723,797.26544,763.81006,1314.6737,-0.24267578125,0.0482177734375,0.9942626953125,-1.435546875,-0.575714111328125,1.338348388671875,7.440833512147438,6.835303149512433,8.607765777364518,7.0008611687289894,0.0,0.0,0.0,0.0,0.0,0.0,0.0,0.0,0.0,0.0,0.0,0.0,93.542854,1,1.0,1.0,1.0,1.0,92.26
2025-11-19 00:27:45.045,0.17205633,-0.12281038,-0.1908713,0.08880152,-0.07173104,-0.17535473,-0.5297847,-0.047359075,0.8056576,-0.21371874,-0.16853188,0.7108333,0.39787313,-0.26513055,0.29412827,0.3955515,0.43324432,-0.3004934,0.44731736,0.52709883,739.38226,741.1524,733.36383,730.4431,742.56854,745.84326,755.6675,1343.6154,-0.2470703125,0.0457763671875,0.9920654296875,-1.016845703125,-0.3887939453125,0.538330078125,7.481940729084711,6.871680137329233,8.677529027489689,7.059668597858999,0.0,0.0,0.0,0.0,0.0,0.0,0.0,0.0,0.0,0.0,0.0,0.0,92.48749,1,1.0,1.0,1.0,1.0,92.26
2025-11-19 00:27:45.546,0.1603247,0.1300837,0.043200657,0.18980378,-0.08404462,0.05088618,-0.59834284,0.056266975,0.5549496,0.15531005,-0.28122425,0.6769375,0.3339978,-0.22878458,0.23783161,0.3753372,0.42838094,-0.4553164,0.36868876,0.4777438,744.5157,724.3362,737.2581,741.4179,774.4308,773.6343,780.0067,1425.7493,-0.25775146484375,0.041259765625,0.98504638671875,-1.054229736328125,0.964508056640625,0.5084228515625,7.4675059008654605,6.8564213337148034,8.638558043058437,7.028174427198818,0.0,0.0,0.0,0.0,0.0,0.0,0.0,0.0,0.0,0.0,0.0,0.0,90.88775,1,1.0,1.0,1.0,1.0,92.26
2025-11-19 00:27:46.047,0.26731065,0.31920785,0.18688047,0.46286944,0.19030848,0.22516005,-0.44045296,0.3673027,0.68027085,0.26677528,-0.13164183,0.7966443,0.43130025,-0.1978882,0.2988339,0.41545147,0.40234742,-0.45112246,0.43054876,0.48010555,732.9213,728.14197,727.69946,726.2833,758.0571,758.5882,767.4388,1343.4384,-0.25311279296875,0.035888671875,0.982177734375,-0.418701171875,-0.7177734375,0.10467529296875,7.513007653243688,6.898260973225568,8.7274558329161,7.099860286579405,0.0,0.0,0.0,0.0,0.0,0.0,0.0,0.0,0.0,0.0,0.0,0.0,88.98247,1,1.0,1.0,1.0,1.0,92.26
2025-11-19 00:27:46.548,0.45658532,0.495291,0.24896537,0.49350545,0.32743257,0.18633883,-0.37551776,0.466236,0.6943451,0.26860052,0.11641118,0.8177077,0.47426432,-0.22967054,0.36832258,0.45993695,0.5222677,-0.47427568,0.5006417,0.68837535,789.29987,730.2661,730.2661,731.59375,751.2421,765.8457,768.5009,1411.6768,-0.22528076171875,0.04443359375,1.0211181640625,4.71038818359375,-18.340606689453125,-2.788848876953125,7.471595260234127,6.856146675249744,8.645760198364448,7.025610948191593,0.0,0.0,0.0,0.0,0.0,0.0,0.0,0.0,0.0,0.0,0.0,0.0,86.44712,1,1.0,1.0,1.0,1.0,92.26
2025-11-19 00:27:47.049,0.5937393,0.5454292,0.21694681,0.61221945,0.46215755,0.0018599237,-0.33895046,0.41128573,0.6935496,0.2803939,0.12426804,0.8334172,0.55612606,-0.27830908,0.3118167,0.5051095,0.60008657,-0.5382128,0.44551098,0.71922064,702.3866,717.2557,731.77075,734.1604,768.14685,758.6767,786.29065,1356.4487,-0.1761474609375,0.03887939453125,1.0350341796875,-6.32537841796875,16.979827880859375,-1.293487548828125,7.450263452781155,6.823126624228119,8.601631738311518,6.9703435615001315,0.0,0.0,0.0,0.0,0.0,0.0,0.0,0.0,0.0,0.0,0.0,0.0,83.43025,1,1.0,1.0,1.0,1.0,92.26
2025-11-19 00:27:47.549,0.6608617,0.62036294,0.35704234,0.79105407,0.44461384,-0.2595975,-0.2936494,0.25004005,0.5843631,0.22283816,0.15703903,0.806378,0.5815567,-0.3751305,0.20166837,0.5059653,0.75626546,-0.5611092,0.30571213,0.7012392,702.2096,726.7259,725.7523,718.31775,782.39636,788.59186,764.87213,1296.8839,-0.25372314453125,0.038818359375,0.97601318359375,0.777587890625,-6.34033203125,1.30096435546875,7.519660491619579,6.8897465608087165,8.736763703120902,7.0826788737095585,0.0,0.0,0.0,0.0,0.0,0.0,0.0,0.0,0.0,0.0,0.0,0.0,81.55976,1,1.0,1.0,1.0,1.0,92.26
2025-11-19 00:27:48.051,0.6608617,0.59195185,0.40278608,0.8595394,0.44461384,-0.27963033,-0.31556758,0.1720376,0.5843631,0.27257144,0.0025580348,0.80647,0.5815567,-0.3483063,0.08944513,0.505855,0.75626546,-0.532076,0.1926094,0.5760324,714.512,730.4431,729.6466,730.6202,766.9078,769.563,741.8605,1149.9634,-0.21551513671875,0.04852294921875,1.0018310546875,-1.293487548828125,1.772003173828125,0.85235595703125,7.469153851655818,6.842444269603987,8.639687194525905,6.9989080418663425,0.0,0.0,0.0,0.0,0.0,0.0,0.0,0.0,0.0,0.0,0.0,0.0,80.24795,1,1.0,1.0,1.0,1.0,92.26
2025-11-19 00:27:48.553,0.53174675,0.49526504,0.41660166,0.83097875,-0.12263682,-0.21938294,-0.28820848,0.23595259,0.5728241,0.2737276,0.011332261,0.7823451,0.21605793,-0.3416702,0.091290094,0.40580815,0.47674718,-0.5317621,0.20876199,0.46079051,719.2028,726.7259,728.14197,732.5673,767.52734,771.51013,762.8365,1399.2859,-0.23858642578125,0.04510498046875,0.99359130859375,-1.248626708984375,0.2691650390625,0.007476806640625,7.462348425243783,6.835577807977494,8.621742841475335,6.980689030350714,0.0,0.0,0.0,0.0,0.0,0.0,0.0,0.0,0.0,0.0,0.0,0.0,78.88341,1,1.0,1.0,1.0,1.0,92.26
2025-11-19 00:27:49.055,0.3241388,0.26393893,0.30053338,0.6695304,-0.004996811,-0.13805333,-0.4309334,0.13510147,0.58857846,0.2426446,-0.06315032,0.4188324,0.22911415,-0.25608084,0.08918929,0.25231716,0.39792055,-0.5955688,0.2554049,0.38338065,709.0246,727.96497,724.3362,718.40625,765.22614,761.9514,760.62384,1268.5619,-0.2305908203125,0.05609130859375,0.9918212890625,-1.12152099609375,-0.874786376953125,0.478515625,7.508857258660563,6.879126433493074,8.714058603342632,7.057837541425267,0.0,0.0,0.0,0.0,0.0,0.0,0.0,0.0,0.0,0.0,0.0,0.0,77.88649,1,1.0,1.0,1.0,1.0,92.26
2025-11-19 00:27:49.557,0.2444499,-0.15692832,-0.014232713,0.4884918,-0.038567387,-0.20494305,-0.45657524,-0.039644845,0.6740231,-0.027174387,-0.100417726,0.48850703,0.26939082,-0.17950943,0.11282315,0.17953904,0.42333034,-0.6597733,0.24740914,0.34797055,744.5157,724.0707,734.51447,736.37305,774.87335,770.448,760.71234,1389.9927,-0.23089599609375,0.05841064453125,0.99664306640625,-0.770111083984375,-0.829925537109375,1.09161376953125,7.467994182581122,6.844092220394344,8.639198912810242,6.994086259924183,0.0,0.0,0.0,0.0,0.0,0.0,0.0,0.0,0.0,0.0,0.0,0.0,76.96289,1,1.0,1.0,1.0,1.0,92.25
2025-11-19 00:27:50.059,0.057188995,-0.1957909,-0.2622149,0.4192774,-0.07602671,-0.26258072,-0.43771732,-0.12278097,0.6930443,-0.29197314,-0.12353158,0.46401274,0.33171865,-0.16672473,0.07231365,0.20683762,0.41895518,-0.5602495,0.32358357,0.40485004,725.13275,731.94775,727.87646,733.5409,750.00305,755.2249,779.38715,1358.0419,-0.2318115234375,0.0675048828125,0.99542236328125,-1.502838134765625,-0.770111083984375,1.233673095703125,7.44800514984622,6.826727701881125,8.600319481200676,6.960364303936294,0.0,0.0,0.0,0.0,0.0,0.0,0.0,0.0,0.0,0.0,0.0,0.0,76.49184,1,1.0,1.0,1.0,1.0,92.25
2025-11-19 00:27:50.561,0.10113745,-0.01097112,-0.4431453,0.26120168,-0.13880374,-0.24728805,-0.48775658,-0.12405512,0.70886636,-0.23584087,-0.100631274,0.46401274,0.38740668,-0.13304174,0.17587914,0.29242662,0.41063392,-0.4890586,0.34694493,0.4194182,744.8697,728.23047,730.0006,726.0178,759.7388,761.5089,765.8457,1415.394,-0.23614501953125,0.060302734375,0.9921875,-1.07666015625,0.35888671875,0.127105712890625,7.477576711250983,6.85437665403047,8.655678420713826,7.008734711394035,0.0,0.0,0.0,0.0,0.0,0.0,0.0,0.0,0.0,0.0,0.0,0.0,76.46642,1,1.0,1.0,1.0,1.0,92.25
2025-11-19 00:27:51.064,0.104095235,0.025116876,-0.29241857,0.08423035,0.04600639,-0.16748063,-0.40030447,-0.0700901,0.9101511,-0.21356508,-0.12311059,0.5255778,0.3906608,-0.16703707,0.08575543,0.25020415,0.34953415,-0.45619008,0.32866603,0.39366937,736.9926,726.2833,729.5581,731.1512,777.3515,766.5538,748.4099,1159.3451,-0.24822998046875,0.0621337890625,0.987060546875,-1.39068603515625,0.545806884765625,1.278533935546875,7.453162625467897,6.8342045156521944,8.610268221157284,6.971472712967599,0.0,0.0,0.0,0.0,0.0,0.0,0.0,0.0,0.0,0.0,0.0,0.0,76.77955,1,1.0,1.0,1.0,1.0,92.25
2025-11-19 00:27:51.566,0.02714731,0.20442921,-0.17455332,-4.756109E-4,0.2223362,-0.1764443,-0.42053413,-0.12618828,0.9331255,-0.19893956,-0.15694012,0.47750437,0.31718275,-0.16237447,0.06967928,0.2570313,0.34404418,-0.58082145,0.2031669,0.36767557,739.11676,731.77075,739.29376,745.1352,757.26056,772.04114,768.14685,1413.8009,-0.2530517578125,0.072998046875,0.99383544921875,-1.114044189453125,-0.418701171875,0.919647216796875,7.435401378060702,6.8165653386739145,8.575996948239277,6.9428471973869295,0.0,0.0,0.0,0.0,0.0,0.0,0.0,0.0,0.0,0.0,0.0,0.0,77.25552,1,1.0,1.0,1.0,1.0,92.25
2025-11-19 00:27:52.067,0.21362264,0.16202204,-0.15631855,0.35236657,0.21709576,-0.47706044,-0.3965199,-0.17626601,0.920285,-0.14528769,-0.2147235,0.4583624,0.38562563,-0.13289182,-0.0075854263,0.32445523,0.3721614,-0.5920007,0.09142513,0.3458603,713.2729,721.94653,726.1063,723.8052,761.9514,760.4468,756.3755,1244.9307,-0.247314453125,0.06890869140625,0.989013671875,-1.03179931640625,-1.158905029296875,0.171966552734375,7.470221967908829,6.8500736714112005,8.639198912810242,6.997687337577188,0.0,0.0,0.0,0.0,0.0,0.0,0.0,0.0,0.0,0.0,0.0,0.0,77.469284,1,1.0,1.0,1.0,1.0,92.25
2025-11-19 00:27:52.569,0.24085917,0.29049394,-0.14996746,0.39316562,0.13699149,-0.59895813,-0.3184415,-0.17519277,0.8920467,-0.19310367,0.01981068,0.5308813,0.44269246,-0.14248426,0.04769269,0.3537316,0.38443348,-0.67818606,0.03198035,0.28043768,731.50525,726.2833,726.3718,729.02704,569.096,558.1212,565.4672,972.7736,-0.24896240234375,0.06658935546875,0.9923095703125,-1.592559814453125,-0.112152099609375,-1.846771240234375,7.435523448489617,6.817847078177526,8.573555539660969,6.939551295806213,0.0,0.0,0.0,0.0,0.0,0.0,0.0,0.0,0.0,0.0,0.0,0.0,77.492096,1,1.0,1.0,1.0,1.0,92.25
2025-11-19 00:27:53.071,0.18435173,0.11927804,-0.061531197,0.3713665,0.006391114,-0.50673145,-0.24389254,-0.0629324,0.847352,-0.15082227,0.09227395,0.594792,0.518261,-0.16692904,0.062979646,0.33783254,0.25518295,-0.5891064,-0.014028943,0.1282021,699.99695,723.4511,725.9293,724.1592,759.0307,772.39514,783.724,1357.5109,-0.24298095703125,0.06298828125,0.99676513671875,0.157012939453125,-0.7476806640625,0.411224365234375,7.487067687099159,6.867438189924421,8.675148654125838,7.028174427198818,0.0,0.0,0.0,0.0,0.0,0.0,0.0,0.0,0.0,0.0,0.0,0.0,77.35291,1,1.0,1.0,1.0,1.0,92.25
2025-11-19 00:27:53.580,0.14217873,0.16428058,-0.101029396,0.19296001,0.23897924,0.1287272,-0.113071084,0.074727826,1.0420051,0.3356452,0.13397953,0.6245056,0.4641565,-0.2979436,0.027740438,0.2178759,0.25309083,-0.6381375,-0.051948205,0.12712407,709.90967,720.1764,727.52246,714.866,578.5662,564.6707,579.6283,1032.5154,-0.2425537109375,0.07037353515625,0.98785400390625,-1.428070068359375,0.418701171875,0.657958984375,7.448096702667907,6.829230145673891,8.596870991583817,6.9604558567579815,0.0,0.0,0.0,0.0,0.0,0.0,0.0,0.0,0.0,0.0,0.0,0.0,77.13809,1,1.0,1.0,1.0,1.0,92.25
2025-11-19 00:27:54.082,0.053705692,0.043294776,-0.23170012,0.26434347,0.23962055,0.26529765,-0.052620415,0.17007247,1.0421413,0.33153784,0.091600895,0.61531985,0.45008072,-0.37224266,-0.0065924344,0.32661837,0.2959991,-0.54175264,-0.07631079,0.13394779,743.8961,722.6546,724.4247,730.1776,762.8365,760.88934,753.1893,1256.171,-0.249267578125,0.067138671875,0.9908447265625,-1.084136962890625,1.016845703125,-0.46356201171875,7.433967050520945,6.817511384498009,8.567818229501944,6.936743675941158,0.0,0.0,0.0,0.0,0.0,0.0,0.0,0.0,0.0,0.0,0.0,0.0,76.828125,1,1.0,1.0,1.0,1.0,92.25
2025-11-19 00:27:54.583,0.29844293,0.003344088,-0.644409,0.4836171,0.19712526,0.27898273,0.026747718,0.22479099,1.0071971,0.33862436,0.09836108,0.68114007,0.4744983,-0.39759994,-0.012168745,0.425231,0.3228879,-0.5336409,-0.06594127,0.1048013,740.17883,730.0006,724.3362,720.88446,771.33307,773.1032,777.70557,1356.3602,-0.25732421875,0.06756591796875,0.993896484375,-1.495361328125,-0.6878662109375,1.016845703125,7.473060105381112,6.8553532174617935,8.644264835610233,7.004889492883199,0.0,0.0,0.0,0.0,0.0,0.0,0.0,0.0,0.0,0.0,0.0,0.0,76.439926,1,1.0,1.0,1.0,1.0,92.23
2025-11-19 00:27:55.088,0.310683,-0.071354635,-0.5091983,0.5261585,0.010654157,-0.025258716,-0.04442005,0.18850765,0.8559549,0.15103371,0.02558899,0.7250806,0.5922832,-0.3263958,0.06480779,0.50091654,0.26011938,-0.5179245,0.002987455,0.15710211,740.5329,729.38104,730.4431,723.3626,758.7652,766.6423,762.748,1312.6381,-0.2520751953125,0.06793212890625,0.98956298828125,-1.009368896484375,-1.92901611328125,-0.0299072265625,7.439979019145031,6.825476479984741,8.577736451851322,6.950201940729085,0.0,0.0,0.0,0.0,0.0,0.0,0.0,0.0,0.0,0.0,0.0,0.0,76.01817,1,1.0,1.0,1.0,1.0,92.23
2025-11-19 00:27:55.589,0.3866398,-0.1616227,-0.19714303,0.5412943,-0.008626109,-0.15453292,-0.16974942,0.12275877,0.8628112,-0.008012722,0.027493335,0.73396116,0.58686036,-0.21783128,0.11356987,0.46128827,0.31535038,-0.5781442,-0.012639634,0.14365146,712.2993,720.97296,730.4431,730.2661,565.7328,546.5269,553.07635,920.7319,-0.25018310546875,0.073974609375,0.976806640625,-0.725250244140625,-0.485992431640625,0.829925537109375,7.4595102877715,6.8490055551581905,8.627571704456047,6.9953985170350235,0.0,0.0,0.0,0.0,0.0,0.0,0.0,0.0,0.0,0.0,0.0,0.0,75.45289,1,1.0,1.0,1.0,1.0,92.23
2025-11-19 00:27:56.090,0.25783792,-0.18546878,-0.037368156,0.40231073,0.2367326,-0.1829645,-0.45874658,0.03447345,1.0988504,0.038174283,-0.032702323,0.78986716,0.5503815,-0.08837029,0.13795047,0.40397024,0.33806852,-0.66573423,-0.061098035,0.15622686,731.2397,725.9293,725.8408,719.6454,747.5249,747.08234,764.7836,1344.9429,-0.2509765625,0.07537841796875,0.98870849609375,-1.383209228515625,-0.575714111328125,-0.171966552734375,7.449012230884772,6.8370121355172495,8.597115132441647,6.969916314998927,0.0,0.0,0.0,0.0,0.0,0.0,0.0,0.0,0.0,0.0,0.0,0.0,74.92427,1,1.0,1.0,1.0,1.0,92.23
2025-11-19 00:27:56.592,0.013147687,-0.27654734,0.06759142,0.15045781,0.29945976,-0.34835482,-0.34633508,0.14006223,1.0936505,-0.035487138,-0.22962427,0.8494218,0.48358625,-0.09956757,0.055005074,0.35439286,0.28684998,-0.72988427,-0.12407144,0.018470602,707.7855,724.77875,732.47876,723.0086,784.3435,797.708,791.1585,1450.0,-0.256103515625,0.072265625,0.98541259765625,-1.45050048828125,0.336456298828125,1.218719482421875,7.438147962711299,6.827093913167871,8.574287962234461,6.952277138020647,0.0,0.0,0.0,0.0,0.0,0.0,0.0,0.0,0.0,0.0,0.0,0.0,74.38352,1,1.0,1.0,1.0,1.0,92.23
2025-11-19 00:27:57.094,-0.22503744,-0.10151629,-0.04166808,-0.26621357,0.3411341,-0.3446377,-0.18678011,0.23615256,1.0762911,0.001239804,-0.2715952,0.7558521,0.48368388,-0.1725159,-0.10990989,0.24954641,0.148673,-0.81883705,-0.16695869,0.02996984,713.1844,726.3718,723.5397,709.82117,756.72955,763.98706,768.32385,1318.745,-0.25628662109375,0.0732421875,0.98626708984375,-1.2261962890625,1.03179931640625,0.844879150390625,7.4792856972558,6.867773883603939,8.653603223422264,7.02143003600124,0.0,0.0,0.0,0.0,0.0,0.0,0.0,0.0,0.0,0.0,0.0,0.0,74.06064,1,1.0,1.0,1.0,1.0,92.23
2025-11-19 00:27:57.595,-0.08853483,-0.026718527,-0.010517849,-0.17508374,0.17428745,-0.3543945,0.00858163,0.28567863,1.0786176,-0.015102446,-0.31265518,0.7377286,0.47067067,-0.32788497,-0.25624987,0.23102924,0.18897714,-0.8482429,-0.18382877,0.10864634,701.5901,729.11554,721.76953,716.7247,563.2546,543.8717,556.88214,911.6157,-0.26593017578125,0.0751953125,0.98406982421875,-1.06170654296875,-0.7476806640625,0.35888671875,7.447120139236583,6.835303149512433,8.588295543952507,6.96637627256038,0.0,0.0,0.0,0.0,0.0,0.0,0.0,0.0,0.0,0.0,0.0,0.0,73.80161,1,1.0,1.0,1.0,1.0,92.23
2025-11-19 00:27:58.096,0.02318333,-0.023257187,-0.11865534,-0.022356426,0.0813889,-0.3223806,-0.0386075,0.1588693,0.756599,-0.03479513,-0.25633064,0.5666641,0.36090994,-0.35639152,-0.3157977,0.15290791,0.16473041,-0.82225376,-0.31316918,0.09557645,731.77075,726.1948,727.52246,729.29254,767.0848,774.96185,758.32263,1147.3967,-0.26318359375,0.083984375,0.99078369140625,-1.323394775390625,-0.95703125,0.231781005859375,7.427375247359512,6.818945712037766,8.555153422501967,6.939825954271273,0.0,0.0,0.0,0.0,0.0,0.0,0.0,0.0,0.0,0.0,0.0,0.0,73.61573,1,1.0,1.0,1.0,1.0,92.23
2025-11-19 00:27:58.597,0.0064247265,-0.037980303,-0.062842704,0.030054202,0.07188688,-0.30727074,-0.07027132,0.05870041,0.74144936,-0.12756978,-0.07202349,0.4498746,0.25760058,-0.39980614,-0.23895182,0.19853947,0.13460533,-0.75942236,-0.50828665,-0.040786672,708.405,721.94653,725.30975,727.78796,763.1905,758.49963,771.24457,1374.327,-0.26190185546875,0.07171630859375,0.98883056640625,-0.814971923828125,-0.85235595703125,0.6280517578125,7.473792527954605,6.861090527620819,8.64139618053072,7.011450778437403,0.0,0.0,0.0,0.0,0.0,0.0,0.0,0.0,0.0,0.0,0.0,0.0,73.64948,1,1.0,1.0,1.0,1.0,92.23
2025-11-19 00:27:59.099,0.04988775,0.15377802,-0.22616045,-0.03791539,0.018700324,-0.34202382,-0.24947079,-0.1106457,0.63055015,-0.27115974,-0.07811264,0.46837822,0.23969615,-0.37895975,-0.23296818,0.15781897,0.09144386,-0.6986919,-0.42478105,-0.20537494,717.60974,732.03625,732.7443,719.9994,756.55255,759.65027,747.6134,1238.8237,-0.26513671875,0.080322265625,0.97821044921875,-1.308441162109375,-0.76263427734375,0.889739990234375,7.43195288844384,6.822089025582338,8.561684190448943,6.943427031924278,0.0,0.0,0.0,0.0,0.0,0.0,0.0,0.0,0.0,0.0,0.0,0.0,73.77173,1,1.0,1.0,1.0,1.0,92.23
2025-11-19 00:27:59.600,0.20401332,0.2663056,-0.27592587,-0.1546889,0.07506843,-0.29277822,-0.29235235,-0.0728872,0.5679633,-0.19584675,-0.02557849,0.5377268,0.25871724,-0.4398363,-0.21353537,0.118580766,0.12000053,-0.65893,-0.3360305,-0.24849471,744.2501,738.3202,728.23047,733.2753,772.5722,779.8297,769.2089,1449.292,-0.26385498046875,0.08831787109375,0.97943115234375,-0.859832763671875,-0.127105712890625,1.128997802734375,7.442481462937796,6.835516772763036,8.587044322056125,6.965460744343514,0.0,0.0,0.0,0.0,0.0,0.0,0.0,0.0,0.0,0.0,0.0,0.0,74.20146,1,1.0,1.0,1.0,1.0,92.23
2025-11-19 00:28:00.102,0.22646451,0.25034353,-0.54457396,-0.34551585,0.098093346,-0.31146473,-0.4388764,-0.025967265,0.48019278,-0.29677162,-0.1660397,0.53807634,0.33248356,-0.47710884,-0.20747928,0.0776533,0.18544203,-0.7390011,-0.26379016,-0.13950433,740.6214,729.5581,731.2397,743.36505,739.8248,748.4984,742.83405,1161.5577,-0.26171875,0.08245849609375,0.98895263671875,-1.233673095703125,-0.321502685546875,0.34393310546875,7.451056910569106,6.837103688338936,8.596901509191046,6.968848198745917,0.0,0.0,0.0,0.0,0.0,0.0,0.0,0.0,0.0,0.0,0.0,0.0,74.4859,1,1.0,1.0,1.0,1.0,92.23
2025-11-19 00:28:00.603,0.21211416,0.1603792,-0.61823314,-0.342385,0.084589794,-0.22141764,-0.45724693,0.13556185,0.6343368,0.0051730196,0.016891288,0.5281937,0.42632368,-0.44108248,-0.1475205,0.08142,0.31584343,-0.7842128,-0.26105723,-0.020708239,726.8144,726.6374,722.9201,725.8408,752.4812,767.2618,771.59863,1371.3179,-0.2747802734375,0.07720947265625,0.97698974609375,-1.18133544921875,1.054229736328125,0.0299072265625,7.4322275469089005,6.817786042963069,8.561348496769424,6.936530052690556,0.0,0.0,0.0,0.0,0.0,0.0,0.0,0.0,0.0,0.0,0.0,0.0,74.696335,1,1.0,1.0,1.0,1.0,92.21
2025-11-19 00:28:01.105,0.07194459,-0.036378294,-0.4850105,-0.24896148,0.0060763923,-0.28987974,-0.33565086,0.14387143,0.7921785,0.25884825,-0.005233155,0.5074343,0.49833468,-0.3839292,-0.10094499,0.16511855,0.3716601,-0.97130376,-0.23663776,0.0848805,700.705,722.21204,726.9029,730.2661,567.67993,550.5097,559.89136,906.0398,-0.2706298828125,0.0853271484375,0.98028564453125,-1.323394775390625,0.2093505859375,0.844879150390625,7.481299859332904,6.864722122881052,8.654945998140333,7.016272560379563,0.0,0.0,0.0,0.0,0.0,0.0,0.0,0.0,0.0,0.0,0.0,0.0,74.69695,1,1.0,1.0,1.0,1.0,92.21
2025-11-19 00:28:01.607,0.01479226,-0.09316666,-0.25104082,-0.08180135,-0.11217192,-0.22515893,-0.15823951,0.07566858,0.80795664,0.26107973,0.033696573,0.47403812,0.5331492,-0.33390447,-0.025192482,0.22666532,0.4044841,-0.95566833,-0.19648504,0.10655462,722.7431,727.52246,726.4603,722.21204,749.91455,751.2421,735.3995,1206.2534,-0.26800537109375,0.08270263671875,0.9857177734375,-1.009368896484375,-1.39068603515625,0.127105712890625,7.449500512600434,6.834296068473881,8.594643206256109,6.96475883937725,0.0,0.0,0.0,0.0,0.0,0.0,0.0,0.0,0.0,0.0,0.0,0.0,74.65911,1,1.0,1.0,1.0,1.0,92.21
2025-11-19 00:28:02.121,-0.17083351,-0.15248977,-0.052894063,0.06075979,-0.05672094,-0.29962683,0.0079335505,0.008156324,0.84917676,0.25674227,0.060614347,0.48809946,0.5121864,-0.3227842,0.045992076,0.31819314,0.33089593,-0.9023969,-0.18822117,0.12882556,729.46954,719.2028,722.8316,727.96497,759.4732,761.15485,762.748,1254.8434,-0.276611328125,0.080322265625,0.98602294921875,-1.375732421875,0.10467529296875,-1.03179931640625,7.44666237512815,6.831732589466657,8.589119519347687,6.959723434184489,0.0,0.0,0.0,0.0,0.0,0.0,0.0,0.0,0.0,0.0,0.0,0.0,74.62792,1,1.0,1.0,1.0,1.0,92.21
2025-11-19 00:28:02.623,-0.05953544,0.21811287,0.010686019,0.39822045,0.037608277,-0.23975582,-0.024575414,0.043684177,0.93363285,0.2525809,0.009901281,0.69057596,0.47338843,-0.2993532,0.020024389,0.29826906,0.35097095,-0.833693,-0.21622747,0.10293132,716.4591,719.2913,730.8857,734.69147,763.279,776.909,770.89056,1450.0,-0.27630615234375,0.084228515625,0.98272705078125,-1.188812255859375,0.25421142578125,1.00189208984375,7.492682926829268,6.8757694966979,8.67588107669933,7.0340032901795295,0.0,0.0,0.0,0.0,0.0,0.0,0.0,0.0,0.0,0.0,0.0,0.0,74.44624,1,1.0,1.0,1.0,1.0,92.21
2025-11-19 00:28:03.124,0.02921616,0.2532326,0.012930183,0.45142776,0.15073466,-0.3158507,-0.16511971,0.23755029,0.91317385,0.15755737,0.040307656,0.9601428,0.39251184,-0.30309263,-0.09277587,0.2733318,0.31072822,-0.78518283,-0.3007663,0.010919567,702.0326,727.87646,721.681,715.8396,750.8881,766.1112,770.71356,1358.5729,-0.280517578125,0.087646484375,0.9781494140625,-1.27105712890625,-0.95703125,0.456085205078125,7.4549631642944,6.843512385856997,8.605446439215125,6.9766912238037335,0.0,0.0,0.0,0.0,0.0,0.0,0.0,0.0,0.0,0.0,0.0,0.0,74.27696,1,1.0,1.0,1.0,1.0,92.21
2025-11-19 00:28:03.626,0.15428843,0.27644727,0.02866384,0.4650597,0.18183652,-0.3653442,-0.30536512,0.28277996,0.88895833,0.15774,0.20721222,0.9826005,0.3536442,-0.38667384,-0.2143071,0.2411353,0.23547947,-0.64776635,-0.37660718,-0.12208808,702.2096,721.94653,722.21204,712.5649,757.5261,764.25256,773.8113,1372.6454,-0.28094482421875,0.09002685546875,0.981689453125,-0.19439697265625,0.0299072265625,0.70281982421875,7.506934649405145,6.891547099635219,8.708870610113726,7.063452781155378,0.0,0.0,0.0,0.0,0.0,0.0,0.0,0.0,0.0,0.0,0.0,0.0,74.174675,1,1.0,1.0,1.0,1.0,92.21
2025-11-19 00:28:04.128,-0.03629216,0.0031984071,-0.02734462,0.15887687,0.3085162,-0.51657724,-0.24044104,0.26975775,1.0631869,0.013874729,0.21597993,0.9990472,0.35565123,-0.46227446,-0.2328609,0.24138011,0.13558121,-0.66776156,-0.37254328,-0.28604534,722.38904,723.0086,725.9293,726.0178,759.9158,759.0307,760.0043,1245.4618,-0.28045654296875,0.08624267578125,0.97711181640625,-1.173858642578125,-0.919647216796875,0.25421142578125,7.473884080776291,6.859747752902749,8.641884462246383,7.009222993109696,0.0,0.0,0.0,0.0,0.0,0.0,0.0,0.0,0.0,0.0,0.0,0.0,74.18847,1,1.0,1.0,1.0,1.0,92.21
2025-11-19 00:28:04.633,-0.094621494,0.065566115,-0.1429817,0.055878542,0.2580494,-0.501599,-0.22919479,0.109702244,1.0132961,-0.3947323,0.1569609,0.8477885,0.3211911,-0.4359534,-0.24782877,0.22027744,0.15223622,-0.70187104,-0.3687733,-0.28250664,732.47876,733.5409,726.6374,724.86725,570.3351,544.6683,552.89935,904.09265,-0.28253173828125,0.0897216796875,0.978515625,-1.33087158203125,-0.95703125,0.426177978515625,7.457618196123311,6.8476017452256634,8.61280118255728,6.986060129222993,0.0,0.0,0.0,0.0,0.0,0.0,0.0,0.0,0.0,0.0,0.0,0.0,74.309875,1,1.0,1.0,1.0,1.0,92.21
2025-11-19 00:28:05.134,-0.29869208,0.06832508,-0.183074,0.021161554,0.27323344,-0.51206267,-0.34125584,-0.009657113,1.0074302,-0.35595897,0.04912625,0.687134,0.350464,-0.34941074,-0.2255139,0.24968162,0.18476434,-0.79765636,-0.42351872,-0.3632814,730.2661,729.5581,736.7271,726.5489,758.1456,758.9422,779.9182,1356.8027,-0.28338623046875,0.07958984375,0.97003173828125,-0.2093505859375,-0.0897216796875,0.31402587890625,7.475867725246167,6.866919390601531,8.656960160217437,7.023596786114489,0.0,0.0,0.0,0.0,0.0,0.0,0.0,0.0,0.0,0.0,0.0,0.0,74.381294,1,1.0,1.0,1.0,1.0,92.21
2025-11-19 00:28:05.636,-0.19802245,0.058911834,-0.18653917,0.16724482,0.24619952,-0.34554735,-0.3934652,-0.17020229,0.8142416,-0.18751323,-0.13467374,0.55338365,0.32305583,-0.3234912,-0.20382711,0.20141886,0.15364106,-0.7720032,-0.528415,-0.36447835,736.37305,733.8949,728.93854,727.87646,779.21014,780.0952,777.88257,1450.0,-0.27874755859375,0.08819580078125,0.98162841796875,-1.36077880859375,-0.19439697265625,0.70281982421875,7.473487351882317,6.86078535154853,8.644386906039148,7.011481296044632,0.0,0.0,0.0,0.0,0.0,0.0,0.0,0.0,0.0,0.0,0.0,0.0,74.42858,1,1.0,1.0,1.0,1.0,92.21
2025-11-19 00:28:06.138,0.058737297,0.07128692,-0.08886871,0.3027088,0.36507455,-0.15326574,-0.3866426,-0.133056,0.74901354,-0.19237311,-0.2648688,0.530075,0.29968974,-0.34958073,-0.2324817,0.14318667,0.0860143,-0.8060103,-0.6048943,-0.3766405,720.70746,732.39026,725.7523,727.87646,751.5077,747.8789,742.56854,1176.9578,-0.28485107421875,0.08123779296875,0.98089599609375,-1.4056396484375,0.052337646484375,0.590667724609375,7.451392604248623,6.840338554705195,8.602791407386215,6.977362611162769,0.0,0.0,0.0,0.0,0.0,0.0,0.0,0.0,0.0,0.0,0.0,0.0,74.46355,1,1.0,1.0,1.0,1.0,92.21
2025-11-19 00:28:06.645,0.08997657,0.0064345095,-0.18396254,0.2429933,0.32621747,-0.12477143,-0.4226036,-0.1184222,0.6699427,-0.21537714,-0.29343453,0.4045737,0.309031,-0.41233012,-0.34288362,0.11982601,0.0282187,-0.88885313,-0.6924633,-0.2967371,735.84204,724.95575,728.23047,727.96497,564.6707,542.01306,568.03394,887.9845,-0.27984619140625,0.08172607421875,0.9691162109375,-1.21124267578125,0.560760498046875,-0.179443359375,7.505134110578642,6.889807596023174,8.70581884939084,7.062903464225258,0.0,0.0,0.0,0.0,0.0,0.0,0.0,0.0,0.0,0.0,0.0,0.0,74.659744,1,1.0,1.0,1.0,1.0,92.20
2025-11-19 00:28:07.156,0.099384524,0.18498413,-0.08239168,0.114595436,0.13104352,-0.24554414,-0.5841602,-0.221269,0.5951776,-0.3297208,-0.033438146,0.38381648,0.39691588,-0.39850166,-0.34968814,0.18356621,0.034608196,-0.9035039,-0.77551436,-0.2906102,721.14996,721.681,727.1684,723.2741,756.90656,755.6675,750.5341,1251.9227,-0.278076171875,0.08544921875,0.98345947265625,-1.099090576171875,-0.9869384765625,0.418701171875,7.47312114059557,6.860144481796724,8.645638127935532,7.009955415683189,0.0,0.0,0.0,0.0,0.0,0.0,0.0,0.0,0.0,0.0,0.0,0.0,74.83884,1,1.0,1.0,1.0,1.0,92.20
2025-11-19 00:28:07.658,-0.023932353,0.28202435,-0.06495702,-0.12449937,0.002664073,-0.5538421,-0.6011964,-0.19544251,0.75932443,-0.24789211,0.0068481555,0.4473733,0.39823112,-0.4014515,-0.36177397,0.17278905,0.07308284,-0.8256476,-0.78414196,-0.3306324,705.7499,725.04425,722.6546,729.38104,550.5097,548.474,546.43835,860.54755,-0.2789306640625,0.0968017578125,0.982421875,-1.45050048828125,-1.084136962890625,-0.299072265625,7.455085234723315,6.8401859666690505,8.613136876236798,6.97971246691939,0.0,0.0,0.0,0.0,0.0,0.0,0.0,0.0,0.0,0.0,0.0,0.0,74.96738,1,1.0,1.0,1.0,1.0,92.20
2025-11-19 00:28:08.159,0.17392232,0.4060856,-0.019879835,-0.15677889,0.07817435,-0.5047357,-0.5580063,-0.11049731,0.766934,-0.036388658,0.017498368,0.4871459,0.44791946,-0.38018748,-0.32045722,0.14905025,0.030177133,-0.8884728,-0.7286277,-0.40992695,738.93976,719.9994,728.4075,730.7087,767.88135,780.4492,760.0928,1264.6676,-0.27410888671875,0.0889892578125,0.983154296875,-1.293487548828125,-0.755157470703125,0.321502685546875,7.507453448728036,6.888190162840045,8.715462413275159,7.0661078129842885,0.0,0.0,0.0,0.0,0.0,0.0,0.0,0.0,0.0,0.0,0.0,0.0,75.20759,1,1.0,1.0,1.0,1.0,92.20
2025-11-19 00:28:08.661,0.27225035,0.28090787,-0.12652871,-0.12794636,0.11672837,-0.48649183,-0.2754265,0.13853857,0.7868831,0.017278895,-0.038151145,0.56708086,0.44511402,-0.34775147,-0.37109792,0.067365885,0.008832232,-0.96471226,-0.77805823,-0.43092877,714.24646,719.1143,725.9293,722.8316,753.10077,770.1825,754.5169,1285.9092,-0.27679443359375,0.0885009765625,0.981201171875,-1.2261962890625,-0.934600830078125,-0.04486083984375,7.4595713229859575,6.844519466895549,8.627052905133157,6.988867749088048,0.0,0.0,0.0,0.0,0.0,0.0,0.0,0.0,0.0,0.0,0.0,0.0,75.431854,1,1.0,1.0,1.0,1.0,92.20
2025-11-19 00:28:09.162,0.33209065,0.12679568,0.104035944,0.12130143,0.17776386,-0.26712066,0.09381706,0.22905816,0.8219479,0.0023535958,0.09407344,0.619067,0.41234368,-0.3152151,-0.35360003,0.11870331,0.09460868,-0.9618384,-0.83004004,-0.43985942,740.7099,726.9914,732.47876,737.9662,752.3042,758.32263,739.20526,1177.2234,-0.2783203125,0.099365234375,0.97930908203125,-1.45050048828125,-0.83740234375,0.485992431640625,7.442023698829364,6.825629068020885,8.594429583005507,6.9592351524688265,0.0,0.0,0.0,0.0,0.0,0.0,0.0,0.0,0.0,0.0,0.0,0.0,75.817986,1,1.0,1.0,1.0,1.0,92.20
2025-11-19 00:28:09.666,0.31605574,-0.26489303,0.08721527,0.268152,0.38273284,-0.1969604,0.13264541,0.36687356,0.9746193,0.027793638,0.17696434,0.6669675,0.3469789,-0.27671227,-0.3671616,0.17149185,0.116045445,-0.77069944,-0.8796849,-0.4503422,735.311,729.29254,734.77997,738.85126,543.25214,529.2681,542.45557,838.95197,-0.2760009765625,0.087646484375,0.982421875,-1.428070068359375,-1.203765869140625,-0.321502685546875,7.481605035405193,6.862524855160575,8.669167203108982,7.020728131034976,0.0,0.0,0.0,0.0,0.0,0.0,0.0,0.0,0.0,0.0,0.0,0.0,76.07358,1,1.0,1.0,1.0,1.0,92.20
2025-11-19 00:28:10.168,0.40596843,-0.084151685,0.10724595,0.41950953,0.44559962,-0.20785448,0.10769627,0.37981924,1.0180082,-0.09387419,0.18727681,0.6669675,0.31773853,-0.300029,-0.32872877,0.19890483,0.13066782,-0.69748014,-0.7612383,-0.3961401,735.93054,730.4431,725.9293,729.6466,552.63385,528.29456,552.1913,840.27954,-0.2755126953125,0.0859375,0.9808349609375,-1.128997802734375,-1.42059326171875,0.25421142578125,7.448584984383568,6.832037765538946,8.610542879622345,6.972052547504947,0.0,0.0,0.0,0.0,0.0,0.0,0.0,0.0,0.0,0.0,0.0,0.0,76.27856,1,1.0,1.0,1.0,1.0,92.20
2025-11-19 00:28:10.670,0.5543582,0.41280302,-0.065169044,0.3796702,0.45003584,-0.38351977,-0.25098383,0.33237082,1.0213109,-0.0696077,0.124475606,0.6364862,0.34777427,-0.3012706,-0.33033,0.20383403,-0.008937344,-0.70014054,-0.66197723,-0.3339187,728.319,729.6466,729.6466,724.95575,786.6447,790.9815,765.31464,1188.8176,-0.27374267578125,0.09759521484375,0.98468017578125,-1.607513427734375,-0.919647216796875,0.426177978515625,7.44452614262213,6.8278263357413636,8.607063872398255,6.964728321770021,0.0,0.0,0.0,0.0,0.0,0.0,0.0,0.0,0.0,0.0,0.0,0.0,76.58664,1,1.0,1.0,1.0,1.0,92.20
2025-11-19 00:28:11.172,0.53983086,0.4895526,-0.045772303,0.34252462,0.33804396,-0.4199288,-0.3549746,0.24537364,0.98771876,0.08745305,-0.03905282,0.68046033,0.307641,-0.3578271,-0.28960603,0.087409556,-0.08214229,-0.8084114,-0.67178905,-0.34178856,737.7892,727.96497,730.6202,733.45233,755.579,760.1813,773.2802,1357.8649,-0.27203369140625,0.0928955078125,0.97900390625,-1.30096435546875,-0.35888671875,0.64300537109375,7.474067186419664,6.852393009560594,8.658608111007796,7.007483489497652,0.0,0.0,0.0,0.0,0.0,0.0,0.0,0.0,0.0,0.0,0.0,0.0,77.05436,1,1.0,1.0,1.0,1.0,92.20
2025-11-19 00:28:11.674,0.43735847,0.4854062,0.08368373,0.05021499,0.18392704,-0.3497614,-0.3140851,0.09409048,0.94712377,0.06871327,0.032612175,0.68278635,0.18616945,-0.3958766,-0.25037283,0.07784009,-0.18242978,-0.8660327,-0.6752497,-0.37473843,735.488,720.2649,723.8937,728.93854,775.8469,780.1837,738.2317,1219.5294,-0.27069091796875,0.08642578125,0.9849853515625,-1.457977294921875,-0.82244873046875,0.142059326171875,7.433448251198055,6.812964261020909,8.57727868774289,6.937292992871278,0.0,0.0,0.0,0.0,0.0,0.0,0.0,0.0,0.0,0.0,0.0,0.0,77.60653,1,1.0,1.0,1.0,1.0,92.14
2025-11-19 00:28:12.176,0.36456645,0.4329455,0.12755951,0.056511167,0.110951096,-0.1062073,-0.2801386,0.027693242,0.9855501,0.1646768,0.11894383,0.67870945,0.1601562,-0.36459067,-0.23525374,0.035607662,-0.26059595,-0.82971644,-0.75644934,-0.4534381,708.405,723.5397,726.8144,717.1672,543.7832,530.1532,547.6775,817.88745,-0.27325439453125,0.0914306640625,0.98968505859375,-1.45050048828125,-0.5682373046875,-0.28411865234375,7.414130605822187,6.792853157857092,8.54413656629235,6.908026607538803,0.0,0.0,0.0,0.0,0.0,0.0,0.0,0.0,0.0,0.0,0.0,0.0,78.219666,1,1.0,1.0,1.0,1.0,92.14
2025-11-19 00:28:12.678,0.4211361,0.41971406,0.3572765,-0.014179597,0.24820735,-0.14707945,-0.035654273,0.09526507,0.83656734,0.07973045,0.4794699,0.45785382,0.16942163,-0.3064156,-0.2239118,0.06260966,-0.2353448,-0.8648688,-0.68054247,-0.3590629,724.86725,731.68225,727.4339,724.2477,781.51135,792.3091,770.1825,1194.2166,-0.26763916015625,0.0823974609375,0.98150634765625,-0.994415283203125,0.112152099609375,-0.16448974609375,7.456366974226927,6.832831223326896,8.626320482559665,6.976202942088072,0.0,0.0,0.0,0.0,0.0,0.0,0.0,0.0,0.0,0.0,0.0,0.0,78.7223,1,1.0,1.0,1.0,1.0,92.14
2025-11-19 00:28:13.179,0.4497988,0.3852293,0.88546884,-0.03393533,0.35120454,-0.21486706,0.4145279,0.3147933,0.8689986,0.033100657,0.7442619,0.40452915,0.22310218,-0.2936523,-0.096752584,0.13548763,-0.24508137,-0.9223907,-0.66466135,-0.37314388,723.8052,729.20404,729.5581,724.60175,763.3675,766.0227,777.44,1369.0167,-0.26214599609375,0.0888671875,0.98577880859375,-1.1663818359375,-1.143951416015625,0.246734619140625,7.416205803113749,6.7932804043582955,8.549477147557399,6.90915575900627,0.0,0.0,0.0,0.0,0.0,0.0,0.0,0.0,0.0,0.0,0.0,0.0,79.08304,1,1.0,1.0,1.0,1.0,92.14
2025-11-19 00:28:13.680,0.36239454,0.047202464,0.8879818,-0.18483758,0.317429,-0.41184247,0.3971922,0.33756396,0.7892712,-0.09430024,0.7442619,0.43951985,0.2262982,-0.33877903,-0.0954251,0.11935446,-0.2168992,-0.95960534,-0.6235119,-0.33950135,712.3878,724.77875,726.0178,721.94653,745.66626,754.16284,731.1512,1176.2498,-0.2611083984375,0.0924072265625,0.97998046875,-1.158905029296875,0.059814453125,-0.964508056640625,7.391120329971628,6.766852156498104,8.499672412559903,6.865637651097918,0.0,0.0,0.0,0.0,0.0,0.0,0.0,0.0,0.0,0.0,0.0,0.0,79.32181,1,1.0,1.0,1.0,1.0,92.14
2025-11-19 00:28:14.181,0.22443528,-0.051093243,0.8231371,-0.030788675,0.11081795,-0.36279178,0.33849964,0.39175114,0.7841107,0.0038017803,0.7442619,0.675672,0.1460539,-0.43020827,-0.14427358,0.11268407,-0.27033153,-0.9684917,-0.7285275,-0.45771283,738.67426,724.60175,726.4603,721.32697,759.3847,765.13763,780.8918,1359.9005,-0.2601318359375,0.087158203125,0.9837646484375,-1.353302001953125,-0.35888671875,-0.0,7.425330567675179,6.7996280666618985,8.562752306701952,6.917700689030351,0.0,0.0,0.0,0.0,0.0,0.0,0.0,0.0,0.0,0.0,0.0,0.0,79.52342,1,1.0,1.0,1.0,1.0,92.14
2025-11-19 00:28:14.683,0.030223303,0.019118685,0.026599983,-0.010063785,-0.22993523,-0.34828618,-0.26815745,0.22099477,0.734051,0.13589194,-0.09190113,0.6720199,0.06134966,-0.41081482,-0.27809817,0.033669606,-0.21228336,-0.9914222,-0.73556465,-0.53603446,708.051,722.12354,725.6638,720.3534,771.4216,773.2802,773.7228,1365.1224,-0.2615966796875,0.099609375,0.988037109375,-1.07666015625,-1.054229736328125,-0.04486083984375,7.388892544643921,6.765326276136662,8.489937295853897,6.857947214076247,0.0,0.0,0.0,0.0,0.0,0.0,0.0,0.0,0.0,0.0,0.0,0.0,79.89558,1,1.0,1.0,1.0,1.0,92.14
2025-11-19 00:28:15.186,-0.44571838,-0.051326007,-0.030841775,-0.012615258,-0.32049206,-0.28435865,-0.2301905,0.18767358,0.67154825,0.27362627,-0.03288628,0.692814,0.032455742,-0.4337016,-0.22634546,0.05105474,-0.11113292,-1.0485246,-0.7808192,-0.5886502,720.0879,724.69025,723.4511,726.0178,751.7732,753.01227,767.79285,1353.5281,-0.2667236328125,0.097412109375,0.98773193359375,-1.487884521484375,-0.61309814453125,-0.2691650390625,7.372413036740338,6.748083828052357,8.463020766278044,6.831824142288344,0.0,0.0,0.0,0.0,0.0,0.0,0.0,0.0,0.0,0.0,0.0,0.0,80.27708,1,1.0,1.0,1.0,1.0,92.14
2025-11-19 00:28:15.688,-0.4529423,-0.14803609,0.037875317,0.02973605,-0.07478513,-0.25582838,-0.26583028,-0.024062816,0.72295165,0.29807317,0.08769103,0.61370146,0.12795316,-0.44395047,-0.25656906,0.056783468,-0.09880731,-0.94892174,-0.7657581,-0.5648969,725.22125,728.05347,728.05347,730.8857,781.4228,780.2722,748.8525,1182.3567,-0.25372314453125,0.08697509765625,0.990234375,-1.308441162109375,-1.024322509765625,0.231781005859375,7.420417232911332,6.7941654149679325,8.549812841236918,6.909735593543619,0.0,0.0,0.0,0.0,0.0,0.0,0.0,0.0,0.0,0.0,0.0,0.0,80.610214,1,1.0,1.0,1.0,1.0,92.14
2025-11-19 00:28:16.190,-0.19157478,-0.2043909,-0.0630941,0.112426855,0.059307367,-0.25541133,-0.31337854,0.033995442,0.72527933,0.28114668,0.059690673,0.67544067,0.12502381,-0.5263118,-0.40634182,-0.06010775,-0.13867436,-0.9068706,-0.75472337,-0.5668636,737.4351,731.1512,730.5317,734.1604,751.4191,765.5802,762.925,1316.2668,-0.2529296875,0.0919189453125,0.987060546875,-1.136474609375,-1.39068603515625,0.112152099609375,7.382758505590921,6.758581884939084,8.476936795174403,6.845801206399161,0.0,0.0,0.0,0.0,0.0,0.0,0.0,0.0,0.0,0.0,0.0,0.0,80.451485,1,1.0,1.0,1.0,1.0,92.14
2025-11-19 00:28:16.693,-0.100486085,-0.166426,-0.16811319,0.16000813,0.050454833,-0.21681933,-0.3758048,0.07727914,0.74647856,0.1668689,0.063589446,0.67504025,0.104827516,-0.6141049,-0.5149859,-0.121570624,-0.22790742,-0.91114706,-0.75825435,-0.5899756,713.53845,722.12354,733.9834,732.03625,757.8801,762.571,751.4191,1260.5078,-0.25006103515625,0.0987548828125,0.99505615234375,-1.413116455078125,-1.502838134765625,-0.83740234375,7.373877881887323,6.749426602770426,8.458107431514199,6.828772381565458,0.0,0.0,0.0,0.0,0.0,0.0,0.0,0.0,0.0,0.0,0.0,0.0,80.32415,1,1.0,1.0,1.0,1.0,92.14
2025-11-19 00:28:17.194,-0.01831938,-0.16069205,-0.089394726,0.2596761,0.023848705,-0.10684276,-0.35413823,0.056644622,0.6380252,-0.033195302,0.017909536,0.68743485,0.11030666,-0.6536325,-0.43792486,-0.08357559,-0.2556054,-0.9659924,-0.6121704,-0.6322717,723.5397,721.681,729.38104,729.7351,753.63184,754.5169,769.2089,1356.0947,-0.24627685546875,0.093017578125,0.97821044921875,-0.28411865234375,-0.11962890625,0.97198486328125,7.434607920272751,6.8066776339317645,8.57294518751639,6.928381851560451,0.0,0.0,0.0,0.0,0.0,0.0,0.0,0.0,0.0,0.0,0.0,0.0,80.306305,1,1.0,1.0,1.0,1.0,92.14
2025-11-19 00:28:17.697,-0.04857886,-0.10781178,0.04145627,0.31206304,-0.026223075,-0.08742474,-0.25057134,0.021777876,0.774842,-0.12261976,0.017102728,0.6317967,0.21291,-0.6349676,-0.36458912,0.03001073,-0.2299552,-0.96178603,-0.6438803,-0.6337076,733.6294,728.67303,725.13275,717.1672,764.07556,763.54456,771.86414,1404.6847,-0.246337890625,0.09747314453125,0.990478515625,-1.054229736328125,-0.500946044921875,0.575714111328125,7.401801492501728,6.775183463271583,8.510536680733376,6.874976038909949,0.0,0.0,0.0,0.0,0.0,0.0,0.0,0.0,0.0,0.0,0.0,0.0,80.44573,1,1.0,1.0,1.0,1.0,92.10
2025-11-19 00:28:18.199,-0.14789972,-0.08404122,0.104972154,0.35621402,0.0037676124,-0.22206649,-0.15721491,-0.11500341,0.7794075,-0.091013506,0.005070569,0.6277257,0.2970761,-0.5282525,-0.33503267,0.08891264,-0.22087343,-0.8280592,-0.613005,-0.56620014,731.94775,730.0891,729.8236,731.4167,769.2974,767.1733,765.49164,1271.9252,-0.24786376953125,0.0916748046875,0.98028564453125,-1.502838134765625,-0.710296630859375,0.381317138671875,7.404395489116181,6.778143671172782,8.515358462675536,6.879584197601507,0.0,0.0,0.0,0.0,0.0,0.0,0.0,0.0,0.0,0.0,0.0,0.0,80.35961,1,1.0,1.0,1.0,1.0,92.10
2025-11-19 00:28:18.700,-0.011378727,0.21654692,0.107195206,0.29467148,-0.023698041,-0.18520789,-0.21765514,-0.104309775,0.77590907,-0.06373684,-0.08356939,0.52283627,0.3365532,-0.39053035,-0.3636181,0.09862773,-0.21501711,-0.7859644,-0.78008217,-0.5481291,733.6294,726.9914,731.4167,730.9742,748.4099,758.0571,740.6214,1182.8877,-0.240234375,0.09674072265625,0.9881591796875,-1.03179931640625,-1.3458251953125,1.15142822265625,7.4220041484872326,6.796820446796843,8.554970316858594,6.9153203156664995,0.0,0.0,0.0,0.0,0.0,0.0,0.0,0.0,0.0,0.0,0.0,0.0,80.258224,1,1.0,1.0,1.0,1.0,92.10
2025-11-19 00:28:19.201,0.039233945,0.1986311,0.0076548723,0.16864641,0.011318649,-0.040987253,-0.26314655,0.059320077,0.569748,-0.09087706,0.023386735,0.523038,0.25880322,-0.34418732,-0.35930932,0.010866013,-0.2325257,-0.795359,-0.8316828,-0.57215184,701.236,721.76953,730.1776,720.70746,755.933,753.98584,762.0399,1307.0623,-0.2310791015625,0.09454345703125,0.9959716796875,-1.308441162109375,-2.04864501953125,0.291595458984375,7.425086426817347,6.7983768447655155,8.555183940109195,6.914984621986982,0.0,0.0,0.0,0.0,0.0,0.0,0.0,0.0,0.0,0.0,0.0,0.0,80.19109,1,1.0,1.0,1.0,1.0,92.10
2025-11-19 00:28:19.702,0.17365919,0.19147086,0.013832609,0.07284853,0.12305474,-0.01945221,-0.26455233,0.17870563,0.45316675,-0.02448203,0.023386735,0.48938552,0.19942647,-0.28901875,-0.34885138,-0.030451274,-0.26951793,-0.8593441,-0.86787176,-0.62067944,721.94653,728.85004,727.87646,727.96497,764.42957,767.70435,777.52856,1371.0524,-0.214599609375,0.10137939453125,0.99188232421875,-1.30096435546875,-0.5682373046875,1.06170654296875,7.407508285053525,6.781225949502897,8.52326252294781,6.889410867129199,0.0,0.0,0.0,0.0,0.0,0.0,0.0,0.0,0.0,0.0,0.0,0.0,80.36463,1,1.0,1.0,1.0,1.0,92.10
2025-11-19 00:28:20.202,0.04143543,0.10526477,-0.20998448,-0.19434996,0.3900205,-0.32474133,-0.18618,0.5107789,0.519793,-0.18576242,0.008293128,0.80101424,0.23745191,-0.27279475,-0.33176735,-0.13848642,-0.34172234,-0.95770967,-0.7680727,-0.62799907,730.7972,725.13275,733.8949,733.1868,522.0106,491.74142,526.8785,751.2421,-0.218017578125,0.10015869140625,0.99169921875,-1.562652587890625,-0.2392578125,0.76263427734375,7.421698972414944,6.797827527835396,8.554573587964619,6.918311041174928,0.0,0.0,0.0,0.0,0.0,0.0,0.0,0.0,0.0,0.0,0.0,0.0,80.601814,1,1.0,1.0,1.0,1.0,92.10
2025-11-19 00:28:20.703,0.010887405,0.06695438,-0.18655722,-0.031681087,0.39933208,-0.5693721,-0.25676402,0.6734361,0.52459204,-0.23342308,-0.07476048,0.7794131,0.27141297,-0.2637001,-0.30278948,-0.07795453,-0.35480174,-0.98394084,-0.79628265,-0.5574958,732.39026,730.1776,729.29254,726.5489,757.26056,761.8629,745.93176,1296.9724,-0.224853515625,0.098388671875,0.9991455078125,-1.136474609375,-0.37384033203125,0.620574951171875,7.420630856161934,6.794440073432993,8.550423193381494,6.913824952912286,0.0,0.0,0.0,0.0,0.0,0.0,0.0,0.0,0.0,0.0,0.0,0.0,80.8634,1,1.0,1.0,1.0,1.0,92.10
2025-11-19 00:28:21.209,-0.18869343,-0.018553201,-0.23386453,0.10576347,0.3685705,-0.5841906,-0.20998009,0.64663076,0.6189189,-0.07230507,-0.0069818543,0.8358174,0.29174677,-0.32821122,-0.40667152,0.029318882,-0.308924,-0.9936616,-0.8541448,-0.43601143,708.228,725.9293,731.0627,719.7339,573.96387,573.87537,637.3344,766.6423,-0.228271484375,0.0986328125,0.99383544921875,-1.203765869140625,-0.83740234375,0.2392578125,7.407294661802923,6.783057005936628,8.527168776673104,6.8974980330448465,0.0,0.0,0.0,0.0,0.0,0.0,0.0,0.0,0.0,0.0,0.0,0.0,80.89882,1,1.0,1.0,1.0,1.0,92.10
2025-11-19 00:28:21.710,-0.2782555,-0.2810615,-0.1786062,0.15177025,0.17225346,-0.48301715,-0.217301,0.5214458,0.6365714,-0.08807693,0.015399456,0.82930434,0.26607484,-0.32056832,-0.4472357,0.053474773,-0.3166699,-1.0023541,-0.8202161,-0.33628342,717.60974,726.3718,734.51447,730.4431,740.9754,740.5329,757.7031,1375.3892,-0.2144775390625,0.108642578125,0.99896240234375,-1.398162841796875,-0.64300537109375,0.0299072265625,7.405188946904132,6.7855289321221655,8.528023269675511,6.899298571871349,0.0,0.0,0.0,0.0,0.0,0.0,0.0,0.0,0.0,0.0,0.0,0.0,80.77355,1,1.0,1.0,1.0,1.0,92.10
2025-11-19 00:28:22.212,-0.2033065,-0.072097145,-0.2728898,-0.0103761945,0.07412335,-0.28895438,-0.28726256,0.027024783,0.5967218,-0.0872374,0.0021337003,0.5484903,0.21236734,-0.29563022,-0.4061489,0.032674003,-0.30106926,-1.0047181,-0.7602641,-0.29385963,714.9545,726.1063,724.77875,710.88324,752.92377,756.0215,771.06757,1391.4973,-0.208251953125,0.1063232421875,1.00152587890625,-1.233673095703125,0.19439697265625,0.441131591796875,7.42874853968481,6.805426412035382,8.570595331759769,6.935522971652004,0.0,0.0,0.0,0.0,0.0,0.0,0.0,0.0,0.0,0.0,0.0,0.0,80.55532,1,1.0,1.0,1.0,1.0,92.10
2025-11-19 00:28:22.720,-0.09079979,0.16513467,-0.24483196,-0.0021177456,-0.0031560026,-0.2029792,-0.32376632,0.22165713,0.4934053,-0.04267824,-0.13460483,0.5739845,0.22122581,-0.30689922,-0.34372503,0.07712187,-0.20003587,-1.0105537,-0.73790526,-0.40933102,717.2557,728.85004,730.5317,732.03625,508.2036,486.34256,523.69226,725.30975,-0.21734619140625,0.10406494140625,0.9962158203125,-1.36077880859375,-1.42059326171875,0.142059326171875,7.400367164961972,6.781561643182414,8.516975895858666,6.894598860358105,0.0,0.0,0.0,0.0,0.0,0.0,0.0,0.0,0.0,0.0,0.0,0.0,80.63621,1,1.0,1.0,1.0,1.0,92.10
2025-11-19 00:28:23.221,0.006696571,0.21090892,-0.31124142,0.106266424,0.008750908,-0.16291966,-0.45434904,0.25119075,0.49132863,-0.112093195,-0.31176567,0.45056656,0.22466487,-0.39653492,-0.34416828,0.08116392,-0.17114425,-1.0103048,-0.7902915,-0.5387048,710.97174,732.47876,732.21326,730.7972,486.43106,462.79987,503.5128,675.21515,-0.2147216796875,0.10687255859375,0.9874267578125,-0.94207763671875,-0.55328369140625,0.73272705078125,7.414985098824595,6.797888563049853,8.548073337624873,6.9244145626207,0.0,0.0,0.0,0.0,0.0,0.0,0.0,0.0,0.0,0.0,0.0,0.0,80.81759,1,1.0,1.0,1.0,1.0,92.07
2025-11-19 00:28:23.723,0.1756836,0.24558148,-0.2924581,0.21221721,-0.008831355,-0.24365552,-0.573205,0.17977272,0.44939756,-0.100018315,-0.3259551,0.42309326,0.22521798,-0.45295194,-0.39838174,0.098368496,-0.16402492,-0.94335365,-0.86615396,-0.618188,703.97974,728.58453,728.496,720.0879,763.63306,767.4388,772.12964,1374.504,-0.21673583984375,0.1080322265625,0.98541259765625,-1.532745361328125,-0.306549072265625,0.605621337890625,7.42020360966073,6.800482559664307,8.551827003314022,6.926184583839973,0.0,0.0,0.0,0.0,0.0,0.0,0.0,0.0,0.0,0.0,0.0,0.0,81.04793,1,1.0,1.0,1.0,1.0,92.07
2025-11-19 00:28:24.225,0.19158363,0.1511066,-0.33570957,0.12056682,0.15135917,-0.2103336,-0.35141754,0.068569064,0.42323828,0.06004513,-0.29864976,0.3833081,0.18598846,-0.42396188,-0.47186273,0.0597323,-0.2526897,-0.9457516,-0.9022016,-0.6415064,740.17883,721.5925,725.13275,734.77997,431.99963,433.2387,445.01007,1081.9905,-0.2115478515625,0.10565185546875,0.99505615234375,-1.383209228515625,-0.3887939453125,0.82244873046875,7.407264144195694,6.788946904131798,8.530434160646593,6.911230956297833,0.0,0.0,0.0,0.0,0.0,0.0,0.0,0.0,0.0,0.0,0.0,0.0,80.77704,1,1.0,1.0,1.0,1.0,92.07
2025-11-19 00:28:24.726,0.16168337,0.08166477,-0.2647081,0.05225031,0.2581051,-0.20478204,-0.3404595,-0.074463926,0.31066823,0.062023804,-0.25467533,0.40593478,0.18479383,-0.36211905,-0.44590354,0.06678562,-0.25498295,-0.88074636,-0.8984837,-0.66522413,731.2397,728.14197,731.77075,725.6638,514.48755,495.10468,521.39105,708.9361,-0.2154541015625,0.1104736328125,0.99151611328125,-0.261688232421875,-0.22430419921875,1.114044189453125,7.4542917769353645,6.834235033259423,8.62375700355244,6.9882879145507,0.0,0.0,0.0,0.0,0.0,0.0,0.0,0.0,0.0,0.0,0.0,0.0,80.3153,1,1.0,1.0,1.0,1.0,92.07
2025-11-19 00:28:25.226,-0.01729261,0.056524683,-0.17994012,0.0064907563,0.42200205,-0.15230888,-0.35313478,0.042038202,0.37821433,0.12982996,-0.23613118,0.49617392,0.10531233,-0.36150968,-0.39598942,0.13911164,-0.27735507,-0.8837492,-0.9678318,-0.74030197,734.51447,722.8316,727.0799,731.85925,508.82318,484.83795,515.9037,715.30853,-0.2120361328125,0.108154296875,0.99676513671875,-1.3458251953125,-0.657958984375,0.216827392578125,7.428138187540233,6.808813866437784,8.57108361347543,6.946661898290537,0.0,0.0,0.0,0.0,0.0,0.0,0.0,0.0,0.0,0.0,0.0,0.0,79.76553,1,1.0,1.0,1.0,1.0,92.07
2025-11-19 00:28:25.729,-0.055860575,0.36577544,-0.21274886,0.013304613,0.32488686,-0.27601543,-0.69353354,0.10535465,0.36494252,0.13153128,-0.24712007,0.51884717,0.144796,-0.34414774,-0.35551846,0.14513686,-0.3015558,-0.882057,-0.9683143,-0.6315021,726.5489,729.7351,728.67303,722.47754,762.0399,770.1825,786.9987,1372.5569,-0.20953369140625,0.10791015625,0.9954833984375,-1.18133544921875,-0.545806884765625,1.981353759765625,7.421882078058317,6.803259661922133,8.558449324082684,6.935675559688148,0.0,0.0,0.0,0.0,0.0,0.0,0.0,0.0,0.0,0.0,0.0,0.0,79.34115,1,1.0,1.0,1.0,1.0,92.07
2025-11-19 00:28:26.232,0.1597908,0.55551374,-0.33983684,0.15547682,0.17066318,-0.50588745,-0.57406574,0.23585491,0.36107612,-0.002147814,-0.16590627,0.5083196,0.104391985,-0.37013382,-0.3653916,0.13344258,-0.2908876,-0.9540642,-0.93592745,-0.609605,749.0295,733.1868,724.0707,736.19604,782.5734,792.4861,779.7412,1448.6724,-0.2818603515625,0.11370849609375,0.953369140625,-0.979461669921875,1.95892333984375,0.418701171875,7.482642634050974,6.861273633264192,8.675575900627042,7.035925899434948,0.0,0.0,0.0,0.0,0.0,0.0,0.0,0.0,0.0,0.0,0.0,0.0,79.08776,1,1.0,1.0,1.0,1.0,92.07
2025-11-19 00:28:26.733,0.3111266,0.5665413,-0.23409243,0.2994435,-0.10862107,-0.8507886,-0.3390657,0.19752435,0.42361507,-0.20371501,-0.21673994,0.50156045,0.20956437,-0.3628084,-0.35246316,0.04183859,-0.32286265,-0.94513285,-0.8496818,-0.6037835,716.4591,721.5925,725.30975,717.87524,777.1745,790.9815,755.2249,1220.5029,-0.222900390625,0.09320068359375,1.00592041015625,-1.353302001953125,-3.36456298828125,-1.06170654296875,7.442511980545025,6.8244999165534175,8.600594139665738,6.97412774479651,0.0,0.0,0.0,0.0,0.0,0.0,0.0,0.0,0.0,0.0,0.0,0.0,78.8691,1,1.0,1.0,1.0,1.0,92.07
2025-11-19 00:28:27.235,0.46101046,0.6206813,0.19239087,0.6498175,-0.026995836,-0.85502404,-0.29274553,0.14948152,1.1923382,0.2687371,-0.015210122,1.0229224,0.2795253,-0.36776084,-0.4181701,0.022927677,-0.30900648,-0.97394377,-0.8391498,-0.6488669,718.5833,711.7683,724.77875,732.47876,782.6619,797.531,788.1493,1417.0757,-0.23773193359375,0.10162353515625,0.9932861328125,-1.398162841796875,-0.7177734375,-0.575714111328125,7.437690198602866,6.8218448847245075,8.594490618219965,6.969977350213385,0.0,0.0,0.0,0.0,0.0,0.0,0.0,0.0,0.0,0.0,0.0,0.0,78.24091,1,1.0,1.0,1.0,1.0,92.07
2025-11-19 00:28:27.735,0.46134087,0.5914731,0.26200715,0.6227056,0.113046356,-0.4986682,-0.31142533,0.31951213,1.2149537,0.35886535,-0.0088512525,1.0972123,0.42434034,-0.3241444,-0.39748988,0.0292622,-0.33812734,-0.95611477,-0.82180256,-0.62964123,707.16595,717.1672,721.23846,723.7167,764.42957,761.24335,757.17206,1265.3757,-0.2327880859375,0.1011962890625,0.9901123046875,-1.4056396484375,-0.3289794921875,0.022430419921875,7.48596905323892,6.865698686312376,8.686531721622202,7.046729132393963,0.0,0.0,0.0,0.0,0.0,0.0,0.0,0.0,0.0,0.0,0.0,0.0,77.60405,1,1.0,1.0,1.0,1.0,92.07
2025-11-19 00:28:28.238,0.40433297,0.5722147,0.20857668,0.5424654,0.25264016,-0.38765645,-0.38696867,0.3356572,1.2185025,0.37367642,0.042664558,1.095902,0.43019444,-0.35428384,-0.37729105,0.022953127,-0.32737857,-0.9184894,-0.85863554,-0.51268137,706.81195,724.1592,726.6374,721.06146,791.5126,801.5138,800.00916,1418.4032,-0.22918701171875,0.10247802734375,1.00128173828125,-1.233673095703125,2.385101318359375,0.82244873046875,7.441993181222135,6.824408363731731,8.604347805354886,6.97785089287843,0.0,0.0,0.0,0.0,0.0,0.0,0.0,0.0,0.0,0.0,0.0,0.0,77.00281,1,1.0,1.0,1.0,1.0,92.06
2025-11-19 00:28:28.738,0.33807325,0.28546432,-0.15000276,-1.8748E-4,0.33074602,-0.35621586,-0.3235279,0.32825634,1.1514504,0.3703149,0.08085164,1.0825789,0.36525998,-0.39285648,-0.3029227,0.05861313,-0.25668913,-0.8967085,-0.86556435,-0.47113734,721.85803,729.29254,730.9742,731.59375,761.9514,758.9422,775.5814,1386.4524,-0.27685546875,0.0965576171875,0.97418212890625,-1.24114990234375,-3.476715087890625,-0.396270751953125,7.4294199270438455,6.813727201201631,8.580757694966978,6.959540328541116,0.0,0.0,0.0,0.0,0.0,0.0,0.0,0.0,0.0,0.0,0.0,0.0,76.949974,1,1.0,1.0,1.0,1.0,92.06
2025-11-19 00:28:29.240,0.2620387,0.009465765,-0.24572791,0.25613064,0.33128667,-0.38646024,-0.35684314,0.31002522,0.61052275,-0.068667136,-0.11151774,0.72875965,0.19285955,-0.5240176,-0.29560965,0.12101284,-0.22771566,-0.8901427,-0.8626178,-0.4285934,740.35583,723.5397,725.48676,732.03625,671.49786,673.6221,661.7622,1450.0,-0.24761962890625,0.105712890625,0.991455078125,-1.308441162109375,0.2691650390625,0.471038818359375,7.474952197029301,6.854010442743723,8.666603724101757,7.029273061059056,0.0,0.0,0.0,0.0,0.0,0.0,0.0,0.0,0.0,0.0,0.0,0.0,77.09961,1,1.0,1.0,1.0,1.0,92.06
2025-11-19 00:28:29.742,0.26566845,-0.08388348,-0.27314904,0.3849555,0.22788355,-0.42769533,-0.36174166,0.3727846,0.5817307,-0.09289257,-0.18973988,0.6947321,0.16849592,-0.47260243,-0.3387653,0.19539577,-0.29125115,-0.9909242,-0.8478351,-0.40136957,730.6202,736.46155,725.30975,722.47754,755.8445,757.7916,759.2962,1358.0419,-0.25946044921875,0.10546875,0.98004150390625,-1.069183349609375,-0.829925537109375,0.471038818359375,7.445350118017309,6.8280094413847365,8.614204992489807,6.982459051569988,0.0,0.0,0.0,0.0,0.0,0.0,0.0,0.0,0.0,0.0,0.0,0.0,77.457535,1,1.0,1.0,1.0,1.0,92.06
2025-11-19 00:28:30.244,0.051294446,0.036230836,-0.31622058,0.38231578,0.23659913,-0.42599142,-0.35653275,0.41055664,0.6365842,-0.20436609,-0.1626775,0.51872206,0.27312726,-0.46045098,-0.37253886,0.21653165,-0.282359,-1.0137177,-0.8717764,-0.32874188,744.0731,734.1604,724.3362,731.77075,792.1321,796.2919,796.20337,1416.987,-0.25592041015625,0.096923828125,0.9835205078125,-1.278533935546875,-0.59814453125,0.37384033203125,7.4412302410414135,6.820410557184751,8.606239897003075,6.974982237798917,0.0,0.0,0.0,0.0,0.0,0.0,0.0,0.0,0.0,0.0,0.0,0.0,77.95013,1,1.0,1.0,1.0,1.0,92.06
2025-11-19 00:28:30.745,-0.016185049,0.07142183,-0.46678853,0.16825697,0.24917373,-0.5446993,-0.2524076,0.4418063,0.6501598,-0.4199294,0.022348315,0.510373,0.32009792,-0.4127108,-0.3850026,0.19266562,-0.24187882,-1.0461344,-0.90629447,-0.29344863,734.86847,733.7179,730.0891,730.3546,800.18616,800.45166,775.22736,1262.7205,-0.248046875,0.101806640625,0.9927978515625,-0.22430419921875,0.007476806640625,0.5682373046875,7.456763703120902,6.838751639129295,8.642586367212646,7.004797940061512,0.0,0.0,0.0,0.0,0.0,0.0,0.0,0.0,0.0,0.0,0.0,0.0,78.40429,1,1.0,1.0,1.0,1.0,92.06
2025-11-19 00:28:31.247,-0.117212236,0.21377754,-0.52628005,0.14331949,0.24242537,-0.46024078,-0.14824837,0.53385025,0.72848195,-0.4978428,0.08181298,0.66791576,0.3257392,-0.45026845,-0.3327587,0.1626406,-0.24621233,-0.96818966,-0.87013316,-0.3905302,725.8408,723.0971,727.96497,733.7179,773.1032,788.76886,771.77563,1450.0,-0.24908447265625,0.09942626953125,0.98773193359375,-1.1663818359375,-0.46356201171875,0.43365478515625,7.448066185060678,6.824530434160646,8.618630045537993,6.980658512743485,0.0,0.0,0.0,0.0,0.0,0.0,0.0,0.0,0.0,0.0,0.0,0.0,78.81973,1,1.0,1.0,1.0,1.0,92.06
2025-11-19 00:28:31.747,-0.160227,0.1952987,-0.608167,0.1788962,0.14113727,-0.49966663,-0.15199994,0.4833135,0.69753104,-0.54122835,0.29839483,0.8522025,0.2643002,-0.4595972,-0.30697384,0.14792037,-0.33624482,-0.9655359,-0.8678429,-0.4954793,711.41425,726.1948,724.60175,719.3798,764.16406,763.3675,764.42957,1276.1735,-0.2559814453125,0.09515380859375,0.9781494140625,-1.31591796875,-0.171966552734375,0.31402587890625,7.425635743747467,6.8028018978136995,8.578743532889874,6.94391531363994,0.0,0.0,0.0,0.0,0.0,0.0,0.0,0.0,0.0,0.0,0.0,0.0,79.50523,1,1.0,1.0,1.0,1.0,92.06
2025-11-19 00:28:32.249,-0.09850373,-0.023363665,-0.30495915,0.20759565,0.09032018,-0.26178607,-0.10195383,0.39387408,0.7991812,-0.036184292,0.3167323,0.93116045,0.27901158,-0.092364825,-0.25084373,0.18009058,-0.5045162,-0.79690945,-0.888138,-0.63435906,714.866,725.22125,731.85925,731.0627,803.90344,804.9655,802.57587,1422.386,-0.25592041015625,0.10382080078125,0.98309326171875,-0.859832763671875,-0.411224365234375,0.67291259765625,7.441474381899244,6.818762606394392,8.613533605130772,6.974493956083256,0.0,0.0,0.0,0.0,0.0,0.0,0.0,0.0,0.0,0.0,0.0,0.0,80.12858,1,1.0,1.0,1.0,1.0,92.06
2025-11-19 00:28:32.750,0.024133231,-0.075331256,-0.27243742,0.015397726,0.28156468,-0.27784792,-0.24194607,0.22947499,0.9249882,-0.02371391,0.3456956,1.0810053,0.3936733,-0.14933498,-0.12547079,0.22274,-0.29455042,-0.8759048,-0.7965634,-0.52195144,724.4247,733.9834,726.8144,717.52124,756.3755,762.0399,770.89056,1382.5581,-0.2596435546875,0.10296630859375,0.9844970703125,-1.502838134765625,-0.590667724609375,0.201873779296875,7.421607419593258,6.797400281334192,8.573708127697113,6.935553489259233,0.0,0.0,0.0,0.0,0.0,0.0,0.0,0.0,0.0,0.0,0.0,0.0,80.820724,1,1.0,1.0,1.0,1.0,92.06
2025-11-19 00:28:33.251,0.15459783,-0.1442246,-0.24249828,-0.13396206,0.395731,-0.15377417,-0.20746142,0.42272538,0.9249882,-0.025509266,0.3316694,1.117399,0.42282698,-0.19087829,-0.14417934,0.22464229,-0.23529449,-0.9048062,-0.80409867,-0.43986103,738.93976,728.93854,730.0891,733.45233,788.4148,795.84937,793.8137,1423.9791,-0.25421142578125,0.10418701171875,0.9896240234375,-0.994415283203125,-1.1663818359375,0.381317138671875,7.395575900627041,6.770758410223398,8.517830388861073,6.8851689197243875,0.0,0.0,0.0,0.0,0.0,0.0,0.0,0.0,0.0,0.0,0.0,0.0,81.39141,1,1.0,1.0,1.0,1.0,92.06
2025-11-19 00:28:33.758,0.13467179,-0.2777265,-0.3098445,0.22845837,0.4977157,-0.11549407,0.07466558,0.7012175,0.8379323,0.06976207,0.31383792,1.131928,0.39084676,-0.27448398,-0.23563956,0.22726756,-0.12693802,-0.9435859,-0.7896123,-0.43998876,721.85803,731.2397,728.4075,726.8144,790.716,798.1505,771.86414,1239.1779,-0.25775146484375,0.1021728515625,0.97802734375,-1.128997802734375,-0.6878662109375,0.949554443359375,7.368140571728298,6.7449405145077845,8.466560808716592,6.842230646353384,0.0,0.0,0.0,0.0,0.0,0.0,0.0,0.0,0.0,0.0,0.0,0.0,81.996704,1,1.0,1.0,1.0,1.0,92.06
2025-11-19 00:28:34.263,0.040312637,-0.40974137,-0.32708862,0.34919435,0.55629396,0.077702075,0.19561724,0.95108217,0.8566139,0.08341617,0.24693106,1.1433088,0.28506222,-0.3551683,-0.42284495,0.23074816,-0.15404634,-0.9152217,-0.91718274,-0.57647246,733.36383,729.38104,736.46155,732.39026,759.2077,771.33307,763.81006,1431.3252,-0.25482177734375,0.08721923828125,0.9805908203125,-0.246734619140625,-0.49346923828125,0.545806884765625,7.381598836516225,6.760748635052333,8.490578165605703,6.867712848389481,0.0,0.0,0.0,0.0,0.0,0.0,0.0,0.0,0.0,0.0,0.0,0.0,82.6925,1,1.0,1.0,1.0,1.0,92.03
2025-11-19 00:28:34.764,-0.12395883,-0.46659598,-0.35749307,0.33151507,0.56366765,0.13115439,0.19489697,0.9926928,0.87344706,0.07920698,0.21142656,1.1184407,0.32077578,-0.32188708,-0.41515315,0.25614485,-0.12983063,-0.9565387,-0.9477285,-0.5866445,726.3718,732.47876,729.29254,729.11554,761.6859,766.5538,778.67914,1390.0812,-0.254638671875,0.10772705078125,0.98516845703125,-1.487884521484375,-0.485992431640625,0.2392578125,7.365516057506616,6.744086021505376,8.448402832415422,6.831152754929309,0.0,0.0,0.0,0.0,0.0,0.0,0.0,0.0,0.0,0.0,0.0,0.0,83.379906,1,1.0,1.0,1.0,1.0,92.03
2025-11-19 00:28:35.265,-0.21591951,-0.432429,-0.58059144,0.07366216,0.54091763,0.18985125,0.07575238,0.9009688,0.87344706,-0.23157024,0.0575488,1.0135688,0.29015946,-0.39187518,-0.374813,0.28838882,-0.21997285,-1.0033113,-1.0249884,-0.62067676,750.35706,741.4179,740.6214,741.2409,767.52734,770.89056,766.5538,1450.0,-0.26019287109375,0.10882568359375,0.97650146484375,-1.368255615234375,-1.39068603515625,0.8074951171875,7.343573897909067,6.725073552201797,8.404365925184178,6.79584388336552,0.0,0.0,0.0,0.0,0.0,0.0,0.0,0.0,0.0,0.0,0.0,0.0,83.88838,1,1.0,1.0,1.0,1.0,92.03
2025-11-19 00:28:35.765,-0.032814328,-0.22700416,-0.36138758,0.0854457,0.34122467,0.0831879,-0.054870665,0.5270604,0.53223675,-0.29996818,-0.07765593,0.74764115,0.20777354,-0.38312748,-0.38407215,0.29917488,-0.24971654,-1.0424861,-0.95380956,-0.5829506,746.90533,739.29376,742.2145,740.44434,491.74142,478.99652,507.9381,680.437,-0.2596435546875,0.10272216796875,0.9906005859375,-1.2860107421875,-1.009368896484375,0.336456298828125,7.3849862909186275,6.765967145888467,8.47303054144911,6.858435495791908,0.0,0.0,0.0,0.0,0.0,0.0,0.0,0.0,0.0,0.0,0.0,0.0,84.25934,1,1.0,1.0,1.0,1.0,92.03
2025-11-19 00:28:36.265,0.06116698,-0.19670664,-0.358668,0.21246277,0.22799155,0.001023486,-0.07070747,0.291414,0.39292616,-0.27453214,-0.050971188,0.7297989,0.1916902,-0.47408718,-0.39526233,0.24870259,-0.25445408,-1.0379249,-0.8541243,-0.6273386,720.61896,731.3282,737.3466,736.37305,796.82294,783.28143,785.4056,1450.0,-0.2484130859375,0.10150146484375,0.98333740234375,-1.128997802734375,-0.829925537109375,0.31402587890625,7.358252866986148,6.741675130534296,8.415932098323916,6.812353908876332,0.0,0.0,0.0,0.0,0.0,0.0,0.0,0.0,0.0,0.0,0.0,0.0,84.03898,1,1.0,1.0,1.0,1.0,92.03
2025-11-19 00:28:36.767,0.12949026,-0.06544842,-0.2950599,0.25928873,0.086119846,-0.1799113,-0.15185502,0.19900952,0.29758522,-0.2744519,-0.10580397,0.5291423,0.15170291,-0.5585554,-0.39103013,0.11639642,-0.22505201,-1.1055883,-0.82911116,-0.6155632,724.0707,731.68225,737.5237,735.0455,763.102,756.11,755.579,1267.8539,-0.25006103515625,0.10693359375,0.9837646484375,-1.1065673828125,-1.443023681640625,1.039276123046875,7.3631051665355365,6.7488162506258496,8.427620341892569,6.826330972987149,0.0,0.0,0.0,0.0,0.0,0.0,0.0,0.0,0.0,0.0,0.0,0.0,83.16296,1,1.0,1.0,1.0,1.0,92.03
2025-11-19 00:28:37.269,0.19266964,-0.17664441,-0.3092486,0.22510797,-0.0668327,-0.3510797,-0.18321073,0.263481,0.35114476,-0.31566986,-0.11845852,0.33212602,0.200132,-0.5967868,-0.39873132,-0.056864403,-0.24594603,-1.0325695,-0.8780793,-0.48092207,727.87646,731.1512,740.44434,740.7984,792.2206,809.9219,777.88257,1420.5273,-0.25042724609375,0.109619140625,0.984619140625,-1.435546875,0.059814453125,-0.052337646484375,7.391974822974036,6.778448847245071,8.476814724745488,6.873267052905133,0.0,0.0,0.0,0.0,0.0,0.0,0.0,0.0,0.0,0.0,0.0,0.0,82.15242,1,1.0,1.0,1.0,1.0,92.03
2025-11-19 00:28:37.768,0.112935,0.19097087,-0.33299536,0.10111162,-0.15723741,-0.22507098,-0.31288296,0.23137972,0.50364876,0.369556,-0.12574722,0.35582137,0.17581807,-0.4586111,-0.41724008,0.012214784,-0.20792522,-0.93707335,-0.9918951,-0.4968805,713.98096,722.38904,729.9121,724.95575,784.3435,792.3976,770.71356,1233.6019,-0.24688720703125,0.1082763671875,0.98590087890625,-0.994415283203125,0.351409912109375,0.127105712890625,7.39054049543428,6.775946403452305,8.472511742126219,6.871344443649715,0.0,0.0,0.0,0.0,0.0,0.0,0.0,0.0,0.0,0.0,0.0,0.0,80.86057,1,1.0,1.0,1.0,1.0,92.03
2025-11-19 00:28:38.270,0.15421836,1.2459316,-0.28782243,0.23904231,-0.26650956,0.8150787,-0.47665343,0.27570453,0.5061048,1.1323466,-0.30923346,0.30610892,0.15554614,0.26976106,-0.48515573,0.10497238,-0.23533578,-0.3922739,-0.91136783,-0.5236664,709.55566,720.4419,726.6374,701.6786,798.062,803.72644,780.6263,1409.6411,-0.2508544921875,0.101318359375,0.9808349609375,-1.173858642578125,-0.904693603515625,0.426177978515625,7.427710941039029,6.814154447702835,8.540718594282717,6.933508809574899,0.0,0.0,0.0,0.0,0.0,0.0,0.0,0.0,0.0,0.0,0.0,0.0,79.02071,1,1.0,1.0,1.0,1.0,92.03
2025-11-19 00:28:38.772,-0.015336196,1.3020122,-0.20659862,0.22168195,-0.1763802,0.8349014,-0.5646882,0.22253987,0.49843872,1.1323466,-0.4352024,0.2730329,0.15094563,0.28831038,-0.4825897,0.16225882,-0.23491062,-0.38357186,-0.91067064,-0.650886,708.3165,728.85004,727.61096,727.96497,757.34906,750.8881,752.1272,1316.9749,-0.24420166015625,0.1087646484375,0.99114990234375,-1.30096435546875,-0.889739990234375,0.560760498046875,7.415992179863148,6.7998416899125,8.515480533104451,6.911597167584579,0.0,0.0,0.0,0.0,0.0,0.0,0.0,0.0,0.0,0.0,0.0,0.0,76.63631,1,1.0,1.0,1.0,1.0,92.03
2025-11-19 00:28:39.274,-0.01009248,1.288074,-0.11685364,0.46906254,-0.10459581,0.8247459,-0.3996192,0.26711306,0.33482748,1.1323466,-0.3796522,0.122070916,0.120772384,0.28067833,-0.47070748,0.18148886,-0.3206244,-0.3934953,-0.81611794,-0.7697939,745.4007,730.7972,730.6202,732.39026,754.16284,766.3767,757.34906,1389.9927,-0.23516845703125,0.11004638671875,0.99298095703125,-1.278533935546875,-0.37384033203125,0.2691650390625,7.474677538564242,6.853094914526858,8.622536299263286,6.999640464439835,0.0,0.0,0.0,0.0,0.0,0.0,0.0,0.0,0.0,0.0,0.0,0.0,74.53706,1,1.0,1.0,1.0,1.0,92.03
2025-11-19 00:28:39.775,-0.004872618,0.81474185,-0.087406956,0.46906254,-0.024374206,0.18345636,-0.37069014,0.26711306,0.31327647,0.81007636,-0.2709937,0.122070916,0.103929326,-0.22039296,-0.4538341,0.18148886,-0.32513955,-0.7293229,-0.7552966,-0.7697939,745.3122,730.2661,730.0006,731.68225,771.24457,780.8918,783.6355,1395.8341,-0.23681640625,0.09930419921875,0.9951171875,-1.143951416015625,-0.97198486328125,-0.127105712890625,7.438758314855876,6.817725007748611,8.553474954104379,6.9387883556254915,0.0,0.0,0.0,0.0,0.0,0.0,0.0,0.0,0.0,0.0,0.0,0.0,72.84475,1,1.0,1.0,1.0,1.0,92.03
2025-11-19 00:28:40.277,0.24469967,0.15954404,-0.16404541,-0.0051048086,0.03961295,-0.26550114,-0.34205267,0.23061863,0.32776976,-0.18761854,-0.23965259,0.18848461,0.12837407,-0.5186004,-0.4401152,0.069474936,-0.34113938,-0.81854606,-0.73653483,-0.6314434,735.2225,725.48676,724.1592,726.0178,775.8469,788.1493,784.3435,1450.0,-0.2366943359375,0.10565185546875,0.990478515625,-1.45050048828125,-1.5252685546875,0.85235595703125,7.463416541496794,6.842535822425673,8.607002837183797,6.982825262856734,0.0,0.0,0.0,0.0,0.0,0.0,0.0,0.0,0.0,0.0,0.0,0.0,71.42132,1,1.0,1.0,1.0,1.0,92.02
2025-11-19 00:28:40.779,0.33417904,0.06620917,-0.056429934,0.0025279315,0.09805674,-0.2915407,-0.551074,0.20400292,0.38026357,-0.2681019,-0.24705683,0.34435073,0.16928767,-0.62817454,-0.47034174,-0.018446023,-0.29549205,-0.79641604,-0.74459904,-0.5398678,743.7191,738.0547,731.1512,737.8777,770.80206,767.61584,777.3515,1372.8224,-0.22930908203125,0.1082763671875,0.98553466796875,-1.069183349609375,-2.953338623046875,-0.590667724609375,7.470008344658226,6.844092220394344,8.610787020480176,6.97946832606156,0.0,0.0,0.0,0.0,0.0,0.0,0.0,0.0,0.0,0.0,0.0,0.0,70.67952,1,1.0,1.0,1.0,1.0,92.02
2025-11-19 00:28:41.365,0.52948767,0.2074425,-0.015856624,0.5380297,0.05941513,-0.31712797,-0.3266629,0.37363735,0.3882402,-0.15704443,-0.23983029,0.3873224,0.1673919,-0.613977,-0.41187423,-0.027622802,-0.23842044,-0.8809529,-0.842514,-0.5408279,761.42035,728.05347,716.2821,769.74,787.2642,797.7965,793.10565,1450.0,-0.2314453125,0.103271484375,1.0,-1.06170654296875,0.11962890625,0.55328369140625,7.451270533819708,6.828406170278711,8.579903201964571,6.9548100994206425,0.0,0.0,0.0,0.0,0.0,0.0,0.0,0.0,0.0,0.0,0.0,0.0,69.96243,1,1.0,1.0,1.0,1.0,92.02
2025-11-19 00:28:41.872,1.1055633,0.31920144,0.26512393,1.0433416,0.23154621,-0.23868342,0.025785627,0.40233934,1.3162569,0.28420904,0.29451573,0.45492017,0.27395478,-0.4065238,-0.25688136,0.19539404,-0.20000567,-0.90730953,-0.861299,-0.3379968,702.91766,729.7351,721.5925,708.4935,751.8617,763.72156,741.2409,1227.318,-0.2322998046875,0.0986328125,0.99200439453125,-0.28411865234375,-0.7476806640625,0.4486083984375,7.512580406742484,6.887152564194263,8.6969992609017,7.051764537586725,0.0,0.0,0.0,0.0,0.0,0.0,0.0,0.0,0.0,0.0,0.0,0.0,69.06921,1,1.0,1.0,1.0,1.0,92.02
2025-11-19 00:28:42.386,1.3625367,0.37241045,0.24098575,1.2919475,0.4626827,-0.16558269,0.13523436,0.6144634,1.3427123,0.45785224,0.41277018,0.8342507,0.4165425,-0.11250548,-0.22821423,0.3623538,-0.17204097,-0.9024904,-0.7864609,-0.14670819,725.5753,724.51324,723.4511,714.42346,743.09955,747.5249,726.9914,1233.7789,-0.23260498046875,0.09930419921875,0.98455810546875,-1.457977294921875,-0.306549072265625,0.142059326171875,7.477607228858212,6.8551701118184205,8.626656176239182,6.993781083851895,0.0,0.0,0.0,0.0,0.0,0.0,0.0,0.0,0.0,0.0,0.0,0.0,68.42372,1,1.0,1.0,1.0,1.0,92.02
2025-11-19 00:28:42.899,1.3291209,0.26551178,0.172501,1.2015352,0.43228865,-0.21324822,0.05287372,0.48850086,1.3427123,0.45785224,0.42127573,0.9418377,0.4242391,-0.073291704,-0.27932566,0.43866023,-0.119481914,-0.8584403,-0.70281625,-0.10701859,704.8648,723.3626,731.85925,722.5661,764.25256,761.5089,759.8273,1261.393,-0.22930908203125,0.095947265625,0.9970703125,-2.340240478515625,-1.74957275390625,0.336456298828125,7.461432897026917,6.842108575924469,8.59729823808502,6.970862360823022,0.0,0.0,0.0,0.0,0.0,0.0,0.0,0.0,0.0,0.0,0.0,0.0,68.25071,1,1.0,1.0,1.0,1.0,92.02
2025-11-19 00:28:43.402,1.0011652,0.14250469,-0.11314296,0.92988324,0.28394768,-0.27273422,-0.121205926,0.36110651,1.2840526,0.44427922,0.46732378,0.94224733,0.30759996,-0.10522999,-0.4096051,0.32601422,-0.06955921,-0.9129886,-0.56154984,-0.06029234,709.4671,726.1063,727.4339,724.2477,784.078,779.38715,779.9182,1416.3676,-0.24542236328125,0.13287353515625,0.992919921875,1.65985107421875,0.88226318359375,1.4056396484375,7.499824046920821,6.881140595570178,8.673287080084878,7.037329709367475,0.0,0.0,0.0,0.0,0.0,0.0,0.0,0.0,0.0,0.0,0.0,0.0,68.65872,1,1.0,1.0,1.0,1.0,92.02
2025-11-19 00:28:43.915,0.43889284,0.11433545,-0.20415993,0.24192767,0.1379603,-0.38924536,-0.31702584,-0.07023617,0.85407513,-0.08956907,0.18353243,0.8668428,0.17613961,-0.3646432,-0.44396627,0.23520169,-0.029655857,-0.98262846,-0.5021961,-0.0892892,710.61774,728.58453,725.39825,718.8488,776.1124,777.44,791.424,1386.1869,-0.23468017578125,0.13153076171875,0.9932861328125,-2.34771728515625,-1.973876953125,-0.01495361328125,7.464271034499201,6.849249696016022,8.610878573301862,6.985480294685645,0.0,0.0,0.0,0.0,0.0,0.0,0.0,0.0,0.0,0.0,0.0,0.0,69.50819,1,1.0,1.0,1.0,1.0,92.02
2025-11-19 00:28:44.419,0.090719014,-0.043913823,-0.17506039,-0.04289554,0.2743815,-0.32574335,-0.3220063,0.13287394,1.0159252,0.040160194,0.17806177,0.7764677,0.16521513,-0.33650133,-0.3593829,0.06290362,-0.028112572,-1.0593389,-0.47416872,-0.06834613,702.82916,732.21326,726.1063,716.54767,813.3736,814.96674,810.4529,1450.0,-0.2210693359375,0.1292724609375,1.00323486328125,-0.530853271484375,-2.429962158203125,-0.478515625,7.448066185060678,6.834082445223279,8.584602913477815,6.959906539827862,0.0,0.0,0.0,0.0,0.0,0.0,0.0,0.0,0.0,0.0,0.0,0.0,70.45437,1,1.0,1.0,1.0,1.0,92.02
2025-11-19 00:28:44.920,-0.1403706,-0.030255422,-0.2980694,0.028909497,0.33800212,-0.1474668,-0.39333493,0.41243634,1.0614852,0.15630431,0.04403448,0.77062196,0.32081616,-0.2593926,-0.38824826,0.136843,-0.03917027,-1.0026758,-0.51297456,-0.19661683,739.20526,723.7167,734.69147,737.3466,750.09155,757.9686,742.126,1195.1902,-0.2205810546875,0.1243896484375,1.0059814453125,-1.682281494140625,-1.57012939453125,-0.5682373046875,7.488563049853372,6.872748253582243,8.660957966764418,7.02570250101328,0.0,0.0,0.0,0.0,0.0,0.0,0.0,0.0,0.0,0.0,0.0,0.0,71.78795,1,1.0,1.0,1.0,1.0,92.02
2025-11-19 00:28:45.421,-0.22787991,0.091587044,-0.07436846,0.2731744,0.21321207,-0.06780939,-0.3126941,0.45758212,1.0188783,0.1596105,-0.0075842435,0.8108432,0.41418847,-0.26145938,-0.32421532,0.19588794,-0.07482103,-0.95486283,-0.6058605,-0.25171724,746.99384,733.45233,731.3282,737.5237,762.748,763.54456,748.941,1275.9965,-0.2218017578125,0.12701416015625,0.99127197265625,-0.88226318359375,-0.351409912109375,0.800018310546875,7.463355506282335,6.845984312042534,8.615425696778962,6.983954414324202,0.0,0.0,0.0,0.0,0.0,0.0,0.0,0.0,0.0,0.0,0.0,0.0,73.1412,1,1.0,1.0,1.0,1.0,91.98
2025-11-19 00:28:45.922,-0.045633353,0.036977425,-0.05436153,0.41773334,0.02248475,-0.08797256,-0.10383161,0.40056998,1.1880996,0.25503212,0.107953094,0.8220133,0.4493881,-0.2880976,-0.270966,0.2675191,-0.07752988,-0.95310766,-0.6144497,-0.19189541,757.8801,738.0547,734.3374,741.949,779.6527,784.078,766.9078,1258.1182,-0.2303466796875,0.1243896484375,0.98980712890625,-1.1962890625,0.994415283203125,0.5682373046875,7.454261259328136,6.836523853801588,8.599617576234413,6.967932670529051,0.0,0.0,0.0,0.0,0.0,0.0,0.0,0.0,0.0,0.0,0.0,0.0,74.84454,1,1.0,1.0,1.0,1.0,91.98
2025-11-19 00:28:46.423,0.34451038,0.11986992,0.19244367,0.5940569,0.054419562,-0.1492365,-0.09215926,0.2501472,1.3836156,0.39831316,0.18640222,1.000788,0.4474853,-0.33753812,-0.2704724,0.30037007,-0.05156455,-0.9129702,-0.6174211,-0.12087889,737.2581,734.77997,740.9754,737.6122,795.4953,802.57587,766.6423,1279.7137,-0.2362060546875,0.13702392578125,0.9857177734375,-1.854248046875,-0.5682373046875,-0.112152099609375,7.481605035405193,6.862891066447322,8.654183057959612,7.015387549769926,0.0,0.0,0.0,0.0,0.0,0.0,0.0,0.0,0.0,0.0,0.0,0.0,75.94519,1,1.0,1.0,1.0,1.0,91.98
2025-11-19 00:28:46.924,0.50356936,-0.058118034,0.1321637,0.5559543,0.36669835,-0.2182104,-0.035948724,0.305539,1.3853852,0.38200638,0.2377506,1.0378698,0.38945824,-0.32382023,-0.2476651,0.3164078,-0.10698029,-0.95810866,-0.6720753,-0.14046419,725.39825,733.5409,742.65704,740.7099,754.07434,760.0043,750.26855,1257.3217,-0.230712890625,0.1234130859375,0.9903564453125,-0.874786376953125,-1.368255615234375,0.2691650390625,7.4597544286293305,6.841284600529289,8.615761390458479,6.981421452924207,0.0,0.0,0.0,0.0,0.0,0.0,0.0,0.0,0.0,0.0,0.0,0.0,77.176285,1,1.0,1.0,1.0,1.0,91.98
2025-11-19 00:28:47.426,0.4759641,0.13552535,0.19766887,0.46718884,0.43765476,-0.017039036,-0.16239902,0.35571963,1.389091,0.44141474,0.19153683,1.0373008,0.32514083,-0.42649353,-0.33790404,0.28495103,-0.11123731,-0.98736167,-0.702088,-0.21410444,735.84204,747.5249,737.2581,746.72833,777.52856,790.00793,793.9022,1446.3712,-0.23162841796875,0.1240234375,0.982177734375,-1.338348388671875,-0.2691650390625,-0.560760498046875,7.439551772643826,6.82202799036788,8.579018191354933,6.948920201225473,0.0,0.0,0.0,0.0,0.0,0.0,0.0,0.0,0.0,0.0,0.0,0.0,78.0851,1,1.0,1.0,1.0,1.0,91.98
2025-11-19 00:28:47.927,0.48565486,0.4778019,0.22931139,0.49352628,0.41873035,-0.027626252,-0.20474398,0.33998767,1.1723363,0.28586027,0.19264519,0.99095887,0.24019766,-0.5160118,-0.2946627,0.1980869,-0.11770834,-0.9623407,-0.63499814,-0.20644239,701.9441,715.8396,726.4603,748.1444,772.7492,778.67914,796.82294,1384.2397,-0.23614501953125,0.12579345703125,0.9952392578125,-1.27105712890625,-0.485992431640625,0.904693603515625,7.477454640822068,6.859503612044918,8.651100779629497,7.0126714827265575,0.0,0.0,0.0,0.0,0.0,0.0,0.0,0.0,0.0,0.0,0.0,0.0,78.83659,1,1.0,1.0,1.0,1.0,91.98
2025-11-19 00:28:48.429,0.7268711,0.888299,0.54033566,0.97246325,0.2487879,-0.012462005,-0.285656,0.47923073,1.1228825,0.16411543,0.01739277,0.8254742,0.3338308,-0.53448814,-0.17949377,0.398303,-0.013422077,-0.867554,-0.3786292,0.10771941,728.496,728.85004,723.8052,717.3442,740.09033,758.8537,756.1985,1328.3037,-0.2449951171875,0.1324462890625,0.9964599609375,-1.786956787109375,-3.06549072265625,2.519683837890625,7.468085735402808,6.857001168252152,8.627419116419903,6.997931478435019,0.0,0.0,0.0,0.0,0.0,0.0,0.0,0.0,0.0,0.0,0.0,0.0,79.645546,1,1.0,1.0,1.0,1.0,91.98
2025-11-19 00:28:48.931,1.1014037,0.9137048,0.529129,1.1735271,0.2556932,-0.033511072,-0.25218368,0.5120125,1.2835023,0.45089722,0.06665218,0.7663608,0.532907,-0.4960036,-0.13848501,0.5263864,0.3233224,-0.7990323,-0.27291456,0.30015844,722.5661,717.0787,724.1592,728.85004,757.26056,763.279,755.3134,1252.7192,-0.25079345703125,0.145751953125,0.98101806640625,-0.46356201171875,-1.30096435546875,0.43365478515625,7.452613308537777,6.834387621295567,8.59302577307298,6.95755668407124,0.0,0.0,0.0,0.0,0.0,0.0,0.0,0.0,0.0,0.0,0.0,0.0,80.31255,1,1.0,1.0,1.0,1.0,91.98
2025-11-19 00:28:49.432,1.2382683,0.90360415,0.4239938,1.1805087,0.23128918,0.087033845,-0.17183413,0.523122,1.2899494,0.4499764,0.032405715,0.74984646,0.5520823,-0.4075271,-0.13156928,0.651333,0.41346133,-0.81557095,-0.2295362,0.46962664,731.4167,720.70746,726.0178,734.4259,761.9514,763.81006,758.1456,1331.49,-0.2412109375,0.14312744140625,0.982666015625,-1.57012939453125,-0.7177734375,-0.680389404296875,7.477820852108814,6.8542851012087835,8.64325775457168,6.995001788141049,0.0,0.0,0.0,0.0,0.0,0.0,0.0,0.0,0.0,0.0,0.0,0.0,80.52705,1,1.0,1.0,1.0,1.0,91.98
2025-11-19 00:28:49.934,1.1697747,0.6162647,0.04630239,0.77472645,0.19341482,0.15453248,-0.20371306,0.17057952,1.2769504,0.4557987,0.017064193,0.9207011,0.45684734,-0.41316247,-0.25325948,0.4433631,0.4082308,-0.7690582,-0.29415122,0.36455515,754.6054,736.6386,737.6122,737.5237,746.99384,755.4019,742.2145,1241.125,-0.24169921875,0.14697265625,0.98345947265625,-1.016845703125,-0.9271240234375,0.79254150390625,7.44773049138116,6.829016522423289,8.584816536728416,6.9468755215411395,0.0,0.0,0.0,0.0,0.0,0.0,0.0,0.0,0.0,0.0,0.0,0.0,80.35626,1,1.0,1.0,1.0,1.0,91.98
2025-11-19 00:28:50.440,0.72941947,0.6309306,0.66125506,0.49256176,0.13919528,-0.0048041223,0.04192261,0.1786258,1.2403989,0.18085249,0.17392646,1.0018079,0.14933312,-0.4275864,-0.25849432,0.31966487,0.0062365183,-0.7476833,-0.364791,0.17581156,705.4843,738.3202,725.30975,718.7603,770.89056,769.1204,771.33307,1434.5114,-0.2513427734375,0.1474609375,0.9810791015625,-1.1065673828125,-0.934600830078125,0.3887939453125,7.425727296569153,6.810583887657058,8.535774741911641,6.907812984288201,0.0,0.0,0.0,0.0,0.0,0.0,0.0,0.0,0.0,0.0,0.0,0.0,80.25581,1,1.0,1.0,1.0,1.0,91.98
2025-11-19 00:28:50.942,0.45855358,0.73796874,0.69728494,0.4705644,0.14304842,-0.009597279,0.080892906,0.183164,1.214894,0.12212095,0.18073203,1.0627769,0.14167014,-0.43773136,-0.28118145,0.28900427,-0.13555592,-0.76549685,-0.4568548,-0.036101814,741.3294,730.0006,729.29254,743.01105,774.96185,776.555,789.65393,1394.241,-0.2542724609375,0.14678955078125,0.98992919921875,-1.2261962890625,0.426177978515625,0.28411865234375,7.467475383258232,6.852270939131679,8.614327062918724,6.976172424480843,0.0,0.0,0.0,0.0,0.0,0.0,0.0,0.0,0.0,0.0,0.0,0.0,80.19511,1,1.0,1.0,1.0,1.0,91.98
2025-11-19 00:28:51.450,0.37023637,0.7642956,0.67769736,0.34044126,0.22389834,-0.12505002,0.064141475,0.068006136,1.0379511,0.14533992,0.19071878,1.0157015,0.1318682,-0.3616391,-0.24077295,0.38832727,-0.092147164,-0.88933355,-0.5856584,-0.12015446,725.48676,713.4499,720.79596,730.7972,793.9907,805.408,768.32385,1260.6848,-0.24493408203125,0.14892578125,0.98431396484375,-1.114044189453125,-0.800018310546875,0.2392578125,7.447303244879956,6.837958181341344,8.570992060653744,6.943823760818253,0.0,0.0,0.0,0.0,0.0,0.0,0.0,0.0,0.0,0.0,0.0,0.0,80.13596,1,1.0,1.0,1.0,1.0,91.96
2025-11-19 00:28:51.964,0.3047527,0.76282656,0.15903795,0.2833448,0.34188393,-0.076164566,-0.0036980277,0.25558892,1.0230801,0.18694028,0.261232,1.1083269,0.10822732,-0.3605888,-0.30524316,0.3988776,-0.025275461,-0.93300396,-0.62721217,-0.14901747,746.19727,717.1672,729.20404,742.0375,788.59186,794.9643,768.5009,1242.01,-0.249755859375,0.149169921875,0.98297119140625,-1.487884521484375,-0.6878662109375,0.478515625,7.427588870610114,6.823279212264263,8.53153279450683,6.912939942302649,0.0,0.0,0.0,0.0,0.0,0.0,0.0,0.0,0.0,0.0,0.0,0.0,80.32296,1,1.0,1.0,1.0,1.0,91.96
2025-11-19 00:28:52.466,0.5742793,0.8243358,0.010811531,0.67159885,0.42865258,0.011800829,-0.006975703,0.42378348,0.9454504,0.1173673,0.25029662,0.9933757,0.16693336,-0.4078734,-0.31273127,0.30358782,-0.014337813,-0.9186701,-0.5891662,-0.18548632,733.0983,734.1604,726.5489,739.7363,494.57364,481.4747,515.3726,637.2459,-0.25421142578125,0.15234375,0.98052978515625,-0.291595458984375,-0.471038818359375,0.85235595703125,7.468604534725699,6.866217485635267,8.614327062918724,6.98346613260854,0.0,0.0,0.0,0.0,0.0,0.0,0.0,0.0,0.0,0.0,0.0,0.0,80.59727,1,1.0,1.0,1.0,1.0,91.96
2025-11-19 00:28:52.968,1.1218908,1.1805775,0.22543286,1.3155453,0.46640873,0.19115,0.1026786,0.6103807,1.1115228,0.1745809,0.2712384,1.0404757,0.20353708,-0.47592214,-0.37927607,0.18192267,-0.11164487,-0.96735543,-0.63601846,-0.24048491,734.0719,726.5489,726.3718,724.95575,762.0399,764.5181,754.9594,1265.0217,-0.24896240234375,0.14849853515625,0.98065185546875,-0.95703125,-0.70281982421875,0.46356201171875,7.448401878740195,6.848852967122046,8.568794792933266,6.948492954724268,0.0,0.0,0.0,0.0,0.0,0.0,0.0,0.0,0.0,0.0,0.0,0.0,80.884964,1,1.0,1.0,1.0,1.0,91.96
2025-11-19 00:28:53.470,1.2046031,1.164843,0.16218668,1.4744151,0.32642883,0.18397903,-0.047802128,0.61263824,1.142537,0.16596358,0.15842566,0.9086739,0.36429575,-0.425736,-0.39653924,0.18141004,-0.11435506,-0.93094456,-0.683194,-0.15665108,705.0418,729.7351,725.6638,715.043,757.6146,762.4824,742.2145,1259.8883,-0.25921630859375,0.15057373046875,0.9677734375,-1.136474609375,0.55328369140625,0.485992431640625,7.443091815082374,6.84369549150037,8.555489116181484,6.939825954271273,0.0,0.0,0.0,0.0,0.0,0.0,0.0,0.0,0.0,0.0,0.0,0.0,80.45799,1,1.0,1.0,1.0,1.0,91.96
2025-11-19 00:28:53.971,1.1962259,1.0493311,0.050320808,1.4499576,0.30738544,0.11549041,-0.108548336,0.523306,1.161323,0.15706728,0.09520019,0.9046565,0.42004934,-0.31519762,-0.32220906,0.35572374,0.042924106,-0.91700757,-0.56823486,0.04786639,726.6374,733.5409,731.59375,719.1143,744.6042,747.08234,737.7892,1181.7372,-0.25323486328125,0.14801025390625,0.9810791015625,-1.562652587890625,0.067291259765625,0.28411865234375,7.487983215316024,6.886816870514746,8.645058293398183,7.015234961733782,0.0,0.0,0.0,0.0,0.0,0.0,0.0,0.0,0.0,0.0,0.0,0.0,79.928246,1,1.0,1.0,1.0,1.0,91.96
2025-11-19 00:28:54.473,0.7805781,0.4786335,-0.7367487,0.70954144,0.24385697,-1.5615868E-4,-0.358573,0.19125265,1.0399616,0.24530613,0.10765975,0.59866846,0.3650677,-0.38067424,-0.36809045,0.26912722,0.03208276,-0.8789575,-0.3583446,0.055257298,722.38904,727.4339,741.0639,733.36383,783.6355,792.84015,768.41235,1245.5503,-0.2510986328125,0.15380859375,0.98040771484375,-1.31591796875,-0.85235595703125,0.0299072265625,7.456550079870301,6.860144481796724,8.58155115275493,6.963904346374842,0.0,0.0,0.0,0.0,0.0,0.0,0.0,0.0,0.0,0.0,0.0,0.0,79.26421,1,1.0,1.0,1.0,1.0,91.96
2025-11-19 00:28:54.975,0.62889576,0.5809084,-0.5637887,0.6707943,0.2352713,0.009393231,-0.19782077,0.09828299,0.75643885,0.15482858,0.20578839,0.59866846,0.32213214,-0.4396745,-0.23547049,0.23137933,0.06035454,-0.86530083,-0.20597968,0.06918846,747.34784,728.23047,736.9926,740.09033,755.0479,753.80884,742.303,1193.597,-0.25299072265625,0.16156005859375,0.9830322265625,-1.1962890625,-0.28411865234375,-0.31402587890625,7.444495625014901,6.847327086760604,8.562874377130868,6.949835729442339,0.0,0.0,0.0,0.0,0.0,0.0,0.0,0.0,0.0,0.0,0.0,0.0,78.36525,1,1.0,1.0,1.0,1.0,91.96
2025-11-19 00:28:55.476,0.46089482,0.57878953,-0.45036015,0.31463358,0.101465784,0.020050736,-0.06558353,-0.18909137,1.13298,0.13982558,0.21618885,0.6995444,0.30167377,-0.5432235,-0.25348255,0.025848024,-0.0040523144,-0.81200504,-0.066308826,0.11784188,716.1936,733.8064,732.21326,724.4247,800.8942,799.74365,768.41235,1249.0021,-0.25164794921875,0.14947509765625,0.98162841796875,-1.0467529296875,-0.31402587890625,0.299072265625,7.494636053691915,6.896826645685811,8.657021195431895,7.0310125646711015,0.0,0.0,0.0,0.0,0.0,0.0,0.0,0.0,0.0,0.0,0.0,0.0,77.65564,1,1.0,1.0,1.0,1.0,91.96
2025-11-19 00:28:55.978,0.30719733,0.5263104,-0.35334456,0.26914915,-0.014195278,-0.062317148,0.1006848,-0.30328366,1.1075181,0.1650534,0.2846563,0.66399956,0.32994345,-0.46186197,-0.17482124,0.15918398,-0.0032383783,-0.75327224,-0.09828072,0.13614272,717.78674,728.14197,732.21326,725.5753,785.4941,796.99994,766.0227,1234.9294,-0.25616455078125,0.1590576171875,0.97515869140625,-1.09161376953125,-0.55328369140625,0.575714111328125,7.477698781679899,6.880865937105119,8.62589323605846,7.003699306201273,0.0,0.0,0.0,0.0,0.0,0.0,0.0,0.0,0.0,0.0,0.0,0.0,76.98903,1,1.0,1.0,1.0,1.0,91.96
2025-11-19 00:28:56.479,0.2773686,0.40381402,-0.34100518,0.050237134,0.186704,-0.08366851,0.15566279,0.046297114,1.1226574,0.19550629,0.2576541,0.75486773,0.3015711,-0.37364137,-0.24134743,0.19647016,-0.060387474,-0.6928797,-0.24485567,0.048661575,729.29254,724.1592,736.7271,736.8156,782.21936,789.29987,757.26056,1292.1046,-0.2540283203125,0.1561279296875,0.9732666015625,-0.904693603515625,-0.82244873046875,0.43365478515625,7.4932627613666165,6.896216293541235,8.66462007963188,7.031897575280738,0.0,0.0,0.0,0.0,0.0,0.0,0.0,0.0,0.0,0.0,0.0,0.0,76.51062,1,1.0,1.0,1.0,1.0,91.96
2025-11-19 00:28:56.981,0.19853993,0.3771661,-0.15104926,0.052669816,0.2820433,-0.1342194,0.04875431,0.33904678,1.0825955,0.25171232,0.31951466,1.0442024,0.1552258,-0.36911795,-0.20625472,0.21705067,-0.16185808,-0.74636346,-0.54548025,-0.22018322,751.5077,739.6478,730.5317,728.93854,763.456,771.77563,770.094,1329.0118,-0.2525634765625,0.15765380859375,0.984130859375,-1.173858642578125,-0.9271240234375,0.01495361328125,7.502997878072622,6.904242424242424,8.67884128460053,7.046332403499988,0.0,0.0,0.0,0.0,0.0,0.0,0.0,0.0,0.0,0.0,0.0,0.0,76.19394,1,1.0,1.0,1.0,1.0,91.96
2025-11-19 00:28:57.482,0.12328972,0.2994658,-0.029806811,0.05770293,0.39150688,-0.021559633,-0.05916518,0.53455967,0.9765986,0.26128298,0.30749294,1.0528711,0.20361303,-0.29055655,-0.24843515,0.22554873,-0.17829812,-0.7637009,-0.58613294,-0.34173194,717.4327,728.4075,723.0971,721.76953,765.8457,766.3767,765.9342,1264.7561,-0.256591796875,0.1571044921875,0.974609375,-1.233673095703125,-0.61309814453125,0.635528564453125,7.482001764299168,6.887640845909925,8.648140571728298,7.017218606203658,0.0,0.0,0.0,0.0,0.0,0.0,0.0,0.0,0.0,0.0,0.0,0.0,75.902176,1,1.0,1.0,1.0,1.0,91.93
2025-11-19 00:28:57.984,0.23688242,0.48346308,-0.044601697,0.11299259,0.26429263,0.055220276,-0.05149126,0.5051098,0.89961916,0.26072112,0.20763355,1.0568796,0.19198075,-0.28991243,-0.32638994,0.22501786,-0.14876886,-0.8576143,-0.45700645,-0.29409173,721.23846,726.4603,724.77875,728.319,756.287,761.5089,752.3927,1251.2147,-0.2542724609375,0.16094970703125,0.97369384765625,-1.27105712890625,-0.949554443359375,0.7177734375,7.4936289726533625,6.895331282931598,8.677803685954748,7.036017452256634,0.0,0.0,0.0,0.0,0.0,0.0,0.0,0.0,0.0,0.0,0.0,0.0,75.93249,1,1.0,1.0,1.0,1.0,91.93
2025-11-19 00:28:58.484,0.29654133,0.50299054,-0.25528222,0.07056892,0.103379145,-0.055029407,0.025038581,0.33904624,0.8055379,0.13090369,0.2244836,0.9099227,0.25039324,-0.27059016,-0.41175127,0.20789373,-0.10173175,-0.898895,-0.4686659,-0.28907382,703.18317,708.6706,720.97296,718.31775,791.5126,791.424,754.42834,1231.2123,-0.257080078125,0.1605224609375,0.97698974609375,-1.278533935546875,0.16448974609375,0.58319091796875,7.510138998164175,6.90836230121832,8.69724340175953,7.054175428557804,0.0,0.0,0.0,0.0,0.0,0.0,0.0,0.0,0.0,0.0,0.0,0.0,76.09329,1,1.0,1.0,1.0,1.0,91.93
2025-11-19 00:28:58.986,0.34522426,0.5958172,-0.27456063,0.101657555,-0.23458073,-0.2670374,-0.0073285624,-0.005461202,0.6276273,0.058847714,0.17320383,0.7393147,0.18962292,-0.31528893,-0.38801774,0.1107625,-0.08142143,-0.92143834,-0.5021939,-0.2665022,735.2225,716.54767,727.87646,727.61096,754.25134,753.2778,756.55255,1326.5336,-0.26141357421875,0.15472412109375,0.9757080078125,-1.39068603515625,-1.06170654296875,0.321502685546875,7.491065493646139,6.892462627852085,8.668312710106573,7.028052356769902,0.0,0.0,0.0,0.0,0.0,0.0,0.0,0.0,0.0,0.0,0.0,0.0,76.511734,1,1.0,1.0,1.0,1.0,91.93
2025-11-19 00:28:59.488,0.2807852,0.4389424,-0.21236213,0.14812109,-0.057190515,-0.55547225,-0.20101897,-0.22237962,0.75649905,0.15998493,0.09585547,0.739851,0.19692162,-0.33600917,-0.30895108,0.06655423,-0.08636695,-0.9696588,-0.60101444,-0.21227047,719.9109,734.1604,725.30975,718.9373,769.6515,775.22736,756.90656,1313.8772,-0.26123046875,0.15875244140625,0.9781494140625,-0.0897216796875,-0.418701171875,0.95703125,7.533729108552083,6.930579119280929,8.754677538564241,7.095648856781823,0.0,0.0,0.0,0.0,0.0,0.0,0.0,0.0,0.0,0.0,0.0,0.0,76.939384,1,1.0,1.0,1.0,1.0,91.93
2025-11-19 00:28:59.991,0.20565341,0.5147327,-0.18778275,0.2004889,-0.04086308,-0.51154554,-0.3175321,-0.20895886,0.85370237,0.19228701,-0.226598,0.68950295,0.18380652,-0.41566902,-0.32245526,0.03366785,-0.10234113,-0.9921317,-0.6470644,-0.16292511,745.84326,728.58453,727.52246,732.47876,760.2698,756.1985,758.7652,1316.6208,-0.257568359375,0.16339111328125,0.97113037109375,-1.435546875,-0.07476806640625,0.28411865234375,7.509101399518394,6.90460863552917,8.705330567675178,7.05322938273371,0.0,0.0,0.0,0.0,0.0,0.0,0.0,0.0,0.0,0.0,0.0,0.0,77.36654,1,1.0,1.0,1.0,1.0,91.93
2025-11-19 00:29:00.493,0.17765263,0.461376,-0.3570623,0.21157162,-0.07284035,-0.35936657,-0.31415772,-0.17894001,0.8922997,0.2790832,-0.24948992,0.71452695,0.1813254,-0.48016757,-0.3525979,0.018302443,-0.08810044,-1.0151657,-0.5998605,-0.09827244,733.7179,725.30975,719.2913,725.8408,786.9102,790.6275,765.9342,1235.9031,-0.26263427734375,0.16033935546875,0.9742431640625,-1.375732421875,-0.680389404296875,0.351409912109375,7.487372863171447,6.886023412726796,8.666603724101757,7.02036191974823,0.0,0.0,0.0,0.0,0.0,0.0,0.0,0.0,0.0,0.0,0.0,0.0,77.87719,1,1.0,1.0,1.0,1.0,91.93
2025-11-19 00:29:00.995,0.63398033,0.4948273,-0.28259328,0.6791942,0.11642011,-0.009199537,-0.034725167,-0.042478375,0.982285,0.5022652,0.16638775,0.8315044,0.31722978,-0.41932064,-0.4365191,0.03833111,-0.028381769,-0.98205143,-0.56413895,-0.015135401,731.4167,708.6706,726.5489,718.7603,767.96985,779.7412,763.0135,1269.093,-0.2637939453125,0.16571044921875,0.9775390625,-1.338348388671875,-0.605621337890625,-0.321502685546875,7.478950003576282,6.877875211596691,8.656777054574064,7.005957609136209,0.0,0.0,0.0,0.0,0.0,0.0,0.0,0.0,0.0,0.0,0.0,0.0,78.4416,1,1.0,1.0,1.0,1.0,91.93
2025-11-19 00:29:01.497,0.89212716,0.81978947,0.011422335,0.877306,0.5772456,0.19093992,0.036741957,-0.005890553,1.1010178,0.5502417,0.23238488,0.85636175,0.3231388,-0.34060457,-0.41490775,0.10047961,-0.022181,-0.9344541,-0.5431282,0.0138219455,736.9926,707.697,721.32697,734.1604,780.1837,792.0436,763.1905,1227.9375,-0.26507568359375,0.16448974609375,0.97357177734375,-1.1663818359375,-0.4486083984375,0.082244873046875,7.501807691390697,6.900854969840021,8.69913549340772,7.047522590181914,0.0,0.0,0.0,0.0,0.0,0.0,0.0,0.0,0.0,0.0,0.0,0.0,78.82284,1,1.0,1.0,1.0,1.0,91.93
2025-11-19 00:29:01.999,1.0026293,1.029534,0.018287603,0.8767676,0.7090022,0.31482956,0.29022497,0.15584362,1.1603514,0.5497068,0.26286075,0.9711291,0.38062432,-0.28632796,-0.4459381,0.17513534,-0.06743861,-0.9547381,-0.60399354,-0.041532017,719.5569,716.2821,724.86725,730.3546,756.1985,761.7744,763.54456,1368.3086,-0.2613525390625,0.162841796875,0.97076416015625,-1.3458251953125,-0.6878662109375,0.485992431640625,7.478827933147366,6.8811100779629495,8.657387406718643,7.0126714827265575,0.0,0.0,0.0,0.0,0.0,0.0,0.0,0.0,0.0,0.0,0.0,0.0,78.92243,1,1.0,1.0,1.0,1.0,91.93
2025-11-19 00:29:02.501,0.9407239,1.1074959,0.0071189925,0.7250502,0.6990377,0.2781795,0.3341224,0.33865014,1.1748073,0.55294853,0.27808884,1.0316879,0.31950498,-0.37640247,-0.40215248,0.1647455,-0.12121001,-0.98709124,-0.66629696,-0.14779748,722.38904,718.6718,720.70746,733.45233,759.0307,756.90656,753.10077,1307.7703,-0.26129150390625,0.1636962890625,0.97113037109375,-1.293487548828125,-0.70281982421875,0.665435791015625,7.521705171303912,6.922339365329137,8.747322795222088,7.088049972581837,0.0,0.0,0.0,0.0,0.0,0.0,0.0,0.0,0.0,0.0,0.0,0.0,78.86144,1,1.0,1.0,1.0,1.0,91.91
2025-11-19 00:29:03.003,0.8062722,0.91637045,-0.26876268,0.2772686,0.4218704,0.052819528,0.47970307,0.51567584,0.99428815,0.21866529,0.31147647,1.0285616,0.3217011,-0.6142893,-0.42444745,0.13726941,-0.10097883,-1.1869109,-0.7542607,-0.18897264,741.3294,724.2477,729.29254,734.51447,762.0399,766.4652,777.61707,1370.2557,-0.26190185546875,0.16180419921875,0.9736328125,-1.143951416015625,-0.112152099609375,0.179443359375,7.487433898385905,6.888983620627995,8.676460911236678,7.031744987244593,0.0,0.0,0.0,0.0,0.0,0.0,0.0,0.0,0.0,0.0,0.0,0.0,78.758835,1,1.0,1.0,1.0,1.0,91.91
2025-11-19 00:29:03.504,0.6933905,0.80521023,-0.16655196,0.30393568,0.2957488,-0.031726457,0.40001437,0.50874263,1.1540471,0.2639656,0.27297103,1.0071381,0.295778,-0.53034776,-0.3975401,0.13276343,-0.07588149,-1.1350037,-0.69529694,-0.20720716,723.7167,722.21204,728.67303,727.1684,744.1616,751.5077,748.764,1308.8323,-0.26422119140625,0.16119384765625,0.9722900390625,-0.994415283203125,-0.471038818359375,0.515899658203125,7.4530405550389816,6.858771189471425,8.610268221157284,6.978217104165177,0.0,0.0,0.0,0.0,0.0,0.0,0.0,0.0,0.0,0.0,0.0,0.0,78.87647,1,1.0,1.0,1.0,1.0,91.91
2025-11-19 00:29:04.015,0.63258785,0.37169844,-0.025659475,0.30486542,0.43232685,0.060309216,0.15051727,0.47512013,1.0905045,0.15736876,0.22376111,0.9609286,0.37217876,-0.42245206,-0.31019697,0.24338377,-0.063335665,-0.8898615,-0.7203464,-0.25875387,741.2409,728.23047,734.77997,738.76276,773.8998,778.59064,749.2065,1192.4464,-0.264404296875,0.17236328125,0.97943115234375,-1.68975830078125,-1.054229736328125,0.336456298828125,7.439368667000453,6.845770688791932,8.589790906706721,6.9565801206399165,0.0,0.0,0.0,0.0,0.0,0.0,0.0,0.0,0.0,0.0,0.0,0.0,78.960915,1,1.0,1.0,1.0,1.0,91.91
2025-11-19 00:29:04.524,0.30803597,0.21813528,0.11858863,0.14100763,0.48243275,0.22369047,-0.07888579,0.49597147,1.1982882,0.15486576,0.0471848,0.9831823,0.41063902,-0.31731135,-0.2830016,0.22467591,-0.06346422,-0.7755247,-0.7503348,-0.3612773,780.5378,760.4468,727.87646,789.83093,758.9422,761.8629,753.80884,1263.5171,-0.26776123046875,0.1666259765625,0.97686767578125,-1.263580322265625,-0.605621337890625,0.186920166015625,7.464362587320888,6.868658894213576,8.629433278497007,6.9950323057482775,0.0,0.0,0.0,0.0,0.0,0.0,0.0,0.0,0.0,0.0,0.0,0.0,78.95378,1,1.0,1.0,1.0,1.0,91.91
2025-11-19 00:29:05.025,0.13996261,0.6350765,0.19732217,0.11735163,0.5122846,0.3804686,-0.018218713,0.54598963,1.1619627,0.15484078,0.25422874,1.0273001,0.44395038,-0.2499496,-0.2790782,0.20908207,-0.04907142,-0.72803193,-0.7191324,-0.329087,749.64905,734.1604,730.8857,730.9742,753.72034,764.96063,768.23535,1305.1151,-0.26568603515625,0.1619873046875,0.9697265625,-1.36077880859375,-0.8074951171875,0.725250244140625,7.427985599504089,6.835730396013638,8.563362658846529,6.9422978804568105,0.0,0.0,0.0,0.0,0.0,0.0,0.0,0.0,0.0,0.0,0.0,0.0,78.56481,1,1.0,1.0,1.0,1.0,91.91
2025-11-19 00:29:05.529,-0.02594011,0.78384507,0.17936453,0.2079307,0.3787017,0.42186657,0.08738561,0.5352528,1.0764321,0.13154915,0.27411425,0.9832888,0.4395344,-0.19923435,-0.3243241,0.06107623,0.04669749,-0.7861283,-0.6424887,-0.21671706,730.7087,731.68225,728.23047,724.95575,764.96063,758.23413,749.0295,1272.1907,-0.26287841796875,0.1732177734375,0.968505859375,-1.667327880859375,-0.7177734375,0.95703125,7.425208497246262,6.835455737548578,8.564796986386286,6.941168728989343,0.0,0.0,0.0,0.0,0.0,0.0,0.0,0.0,0.0,0.0,0.0,0.0,78.43631,1,1.0,1.0,1.0,1.0,91.91
2025-11-19 00:29:06.031,-0.08010572,0.8726454,0.111657776,0.2764173,0.34877414,0.38321885,0.06303794,0.5033295,1.0764321,0.01413774,0.27324647,0.9832888,0.39872718,-0.27655995,-0.38563544,0.0021575056,0.057277147,-0.8665995,-0.690378,-0.21575418,714.06946,726.6374,728.23047,724.60175,763.72156,763.98706,744.2501,1149.0784,-0.26617431640625,0.16436767578125,0.97064208984375,-1.248626708984375,-0.2392578125,0.478515625,7.432563240588418,6.8401859666690505,8.570625849366998,6.95273490212908,0.0,0.0,0.0,0.0,0.0,0.0,0.0,0.0,0.0,0.0,0.0,0.0,78.46422,1,1.0,1.0,1.0,1.0,91.91
2025-11-19 00:29:06.533,-0.050698135,-0.3483187,-0.19426908,-0.09630168,-0.29048237,-0.66078085,-0.06259348,-0.16657165,0.33679143,-0.30600217,0.3466745,0.3514152,0.13074066,-0.78095466,-0.42302474,-0.2153957,-0.36096394,-1.0811723,-0.86871547,-0.59715074,739.29376,732.5673,723.2741,732.47876,743.36505,745.84326,738.3202,1246.7008,-0.26947021484375,0.16845703125,0.97174072265625,-1.1962890625,-0.59814453125,0.58319091796875,7.401435281214982,6.813696683594402,8.509285458836993,6.904272941849653,0.0,0.0,0.0,0.0,0.0,0.0,0.0,0.0,0.0,0.0,0.0,0.0,78.66504,1,1.0,1.0,1.0,1.0,91.91
2025-11-19 00:29:07.035,0.10357038,-0.2172971,-0.4407883,-0.1365248,0.08437469,-0.26063547,-0.13484015,-0.18002,0.75705314,-0.070841976,0.26833826,0.37918234,0.07764954,-0.7168827,-0.46422395,-0.16493832,-0.32033086,-0.93145466,-1.0716257,-0.64145166,734.1604,728.14197,732.30176,729.7351,804.25745,810.54144,806.73566,1409.7296,-0.27056884765625,0.16650390625,0.97509765625,-0.61309814453125,-0.874786376953125,0.485992431640625,7.397254369024629,6.809180077724531,8.507271296759889,6.899908924015927,0.0,0.0,0.0,0.0,0.0,0.0,0.0,0.0,0.0,0.0,0.0,0.0,78.80916,1,1.0,1.0,1.0,1.0,91.91
2025-11-19 00:29:07.541,0.11993507,-0.08654367,-0.50155425,-0.14476657,0.08153034,-0.1902811,-0.16788685,-0.2654474,0.8283747,0.016453661,0.2858758,0.36834013,0.047908675,-0.50620884,-0.44626176,-0.10201385,-0.27504674,-0.8994373,-1.1148708,-0.6804347,720.4419,726.8144,728.23047,732.9213,753.63184,746.63983,763.279,1349.4568,-0.26861572265625,0.166015625,0.97412109375,-1.51031494140625,-0.3887939453125,0.49346923828125,7.420295162482416,6.8299625682473835,8.544258636721265,6.934454855398994,0.0,0.0,0.0,0.0,0.0,0.0,0.0,0.0,0.0,0.0,0.0,0.0,78.880554,1,1.0,1.0,1.0,1.0,91.91
2025-11-19 00:29:08.041,0.11948631,0.049092997,-0.4303307,-0.1296013,0.18428016,-0.10827389,-0.19569263,-0.24996108,0.8283747,0.15135708,0.15470591,0.44092056,0.05403389,-0.38324744,-0.44853422,-0.060941268,-0.26608858,-0.8556092,-1.0422913,-0.7088158,696.45667,720.4419,733.0098,711.7683,790.893,793.19415,790.09644,1447.0793,-0.273681640625,0.16278076171875,0.97357177734375,-1.45050048828125,-0.231781005859375,0.201873779296875,7.389136685501752,6.800879288558281,8.486793982309324,6.887396705052095,0.0,0.0,0.0,0.0,0.0,0.0,0.0,0.0,0.0,0.0,0.0,0.0,78.74706,1,1.0,1.0,1.0,1.0,91.88
2025-11-19 00:29:08.543,0.0061450726,0.6517638,-0.11204134,-0.0855307,0.045517784,-0.03513001,-0.18233724,-0.28990287,0.6130505,0.06630241,0.060334813,0.31451696,0.089547865,-0.38445595,-0.45167795,-0.033274967,-0.26417926,-0.8934908,-0.5445751,-0.7064074,730.1776,723.0971,727.0799,722.6546,755.756,752.92377,738.93976,1185.8085,-0.276611328125,0.16778564453125,0.97052001953125,-1.495361328125,-0.097198486328125,0.2691650390625,7.449439477385976,6.85489545335336,8.602821924993444,6.982184393104928,0.0,0.0,0.0,0.0,0.0,0.0,0.0,0.0,0.0,0.0,0.0,0.0,78.508934,1,1.0,1.0,1.0,1.0,91.88
