TimeStamp,Delta_TP9,Delta_AF7,Delta_AF8,Delta_TP10,Theta_TP9,Theta_AF7,Theta_AF8,Theta_TP10,Alpha_TP9,Alpha_AF7,Alpha_AF8,Alpha_TP10,Beta_TP9,Beta_AF7,Beta_AF8,Beta_TP10,Gamma_TP9,Gamma_AF7,Gamma_AF8,Gamma_TP10,RAW_TP9,RAW_AF7,RAW_AF8,RAW_TP10,AUX_1,AUX_2,AUX_3,AUX_4,Accelerometer_X,Accelerometer_Y,Accelerometer_Z,Gyro_X,Gyro_Y,Gyro_Z,Optics1,Optics2,Optics3,Optics4,Optics5,Optics6,Optics7,Optics8,Optics9,Optics10,Optics11,Optics12,Optics13,Optics14,Optics15,Optics16,Heart_Rate,HeadBandOn,HSI_TP9,HSI_AF7,HSI_AF8,HSI_TP10,Battery,Elements
2025-10-24 13:23:51.862,,,,,,,,,,,,,,,,,,,,,,,,,,,,,,,,,,,,,,,,,,,,,,,,,,,,,,,,,,/muse/event/connected MuseS-BFCC
2025-10-24 13:23:51.898,0.7232429,0.15124215,-0.08649802,0.66392756,0.03929089,-0.45551994,-0.1845031,0.14021249,0.65273774,0.029674748,0.013330397,0.6742082,0.89807665,0.4024737,0.38035247,1.1431752,0.6053238,0.7171759,0.61047906,0.69204295,726.1063,724.4247,740.8869,731.77075,835.2347,845.50146,827.7117,1450.0,-0.14324951171875,-0.0169677734375,1.01617431640625,-1.31591796875,-1.51031494140625,0.037384033203125,0.9634408602150536,0.8193672364876141,0.7919624251960995,0.6184698281000405,12.119121665116944,11.212535107169254,13.30091600505448,11.15192713921274,0.0,0.0,0.0,0.0,0.0,0.0,0.0,0.0,80.068016,1.0,1.0,1.0,1.0,1.0,10.42,
2025-10-24 13:23:52.402,0.6586945,0.35011852,-0.1265451,0.85724974,0.13790523,-0.37481764,-0.10284703,0.35214996,0.6540444,0.02298963,0.33839685,0.85340405,0.8432446,0.5448442,0.5485863,1.0350434,0.6547571,0.75404215,0.6108302,0.6725286,693.09344,669.8163,693.9785,670.0818,378.54178,374.6475,422.61795,986.22656,-0.14739990234375,-0.01483154296875,1.0172119140625,-1.652374267578125,-1.547698974609375,0.351409912109375,0.9601144410271082,0.8144233841165391,0.8021247884033093,0.6255499129771356,12.155773311398804,11.223521445771642,13.371594783396514,11.18961638414038,0.0,0.0,0.0,0.0,0.0,0.0,0.0,0.0,78.35841,1.0,1.0,1.0,1.0,1.0,10.41,
2025-10-24 13:23:52.942,0.5773496,-0.07809604,-0.024340108,1.0019162,0.26824087,-0.4152464,-0.0791921,0.567032,0.6152541,-0.026309846,0.38772705,0.84400266,0.7678242,0.6172361,0.61975914,0.8662071,0.66502607,0.5499927,0.588283,0.64964455,742.74554,735.0455,747.17084,728.496,835.4117,843.7313,833.37604,1409.2871,-0.13641357421875,-0.024169921875,1.01251220703125,-1.65985107421875,-1.00189208984375,-0.34393310546875,0.9440316620175,0.8046272321960757,0.7816779915599743,0.6115728488663186,12.06708914479174,11.136057983453735,13.238995779987125,11.0610457048852,0.0,0.0,0.0,0.0,0.0,0.0,0.0,0.0,77.314545,1.0,1.0,1.0,1.0,1.0,10.41,
2025-10-24 13:23:53.451,0.38324305,-0.29838908,-0.05547423,0.7273748,0.24053746,-0.28317514,0.0040345853,0.5541362,0.46410778,-0.059012156,0.38454828,0.7767509,0.8306127,0.58329725,0.49878737,0.8099229,0.5972419,0.40948793,0.50889194,0.51275957,699.73145,756.3755,728.14197,676.3657,846.298,857.27277,840.6336,1450.0,-0.13201904296875,-0.02667236328125,1.0218505859375,-0.904693603515625,-0.336456298828125,-0.485992431640625,0.9316720310898124,0.7970283479960899,0.7718513220322819,0.6062933028157261,12.029064206184584,11.10306845003934,13.198559950408889,11.0244550938178,0.0,0.0,0.0,0.0,0.0,0.0,0.0,0.0,76.55778,1.0,1.0,1.0,1.0,1.0,10.4,
2025-10-24 13:23:53.966,0.3024238,-0.31873834,0.44665027,0.6451709,0.22255883,-0.29719764,0.11978065,0.5933695,0.2697933,-0.0644729,0.48514882,0.5767114,0.866222,0.5860319,0.4084394,0.75589126,0.51670057,0.39174685,0.43280852,0.4337395,708.405,700.17395,791.247,750.44556,830.4553,823.5519,816.2058,1407.34,-0.13055419921875,-0.01947021484375,1.02288818359375,-2.026214599609375,-0.40374755859375,-1.383209228515625,0.92959683379825,0.7950141859189853,0.7703254416708389,0.6045537992036811,12.042491953365282,11.107249362229693,13.223767493979926,11.041697541902105,0.0,0.0,0.0,0.0,0.0,0.0,0.0,0.0,75.980354,1.0,1.0,1.0,1.0,1.0,10.4,
2025-10-24 13:23:54.059,,,,,,,,,,,,,,,,,,,,,,,,,,,,,,,,,,,,,,,,,,,,,,,,,,,,,,,,,,/muse/elements/blink
2025-10-24 13:23:54.476,0.29320717,-0.23989193,0.5477606,1.4058204,0.14806524,-0.15213136,0.16756417,1.3783351,0.25803193,-0.0947933,0.48415637,1.3502661,0.8897649,0.5494831,0.33004585,0.81929636,0.49854007,0.36075354,0.3662212,0.42649028,733.9834,726.9914,741.595,735.66504,884.0902,882.40857,854.5291,1450.0,-0.131103515625,-0.01177978515625,1.01409912109375,-0.919647216796875,-0.545806884765625,1.36077880859375,0.9154061464368308,0.784119400138283,0.7497870920058174,0.5869756574398588,11.989208211143694,11.089335526786352,13.136975419021052,11.003550532866033,0.0,0.0,0.0,0.0,0.0,0.0,0.0,0.0,75.61849,1.0,1.0,1.0,1.0,1.0,10.39,
2025-10-24 13:23:54.788,,,,,,,,,,,,,,,,,,,,,,,,,,,,,,,,,,,,,,,,,,,,,,,,,,,,,,,,,,/muse/elements/blink
2025-10-24 13:23:54.984,0.29320717,-0.16573864,0.7972052,1.6004999,0.14806524,-0.08802868,0.2494311,1.5764972,0.25803193,-0.22946678,0.46567518,1.3502661,0.8897649,0.42754993,0.3801978,0.89629585,0.49854007,0.42661738,0.40761295,0.46429294,610.16296,699.90845,797.08844,638.131,818.684,823.3748,818.7725,1404.3307,-0.1368408203125,-0.02813720703125,1.00946044921875,-4.164581298828125,-0.04486083984375,13.376007080078123,0.9100960827790096,0.7848823403190044,0.7436835705600457,0.5874639391555205,11.986614214529242,11.091441241685144,13.137921464845148,11.015757575757576,0.0,0.0,0.0,0.0,0.0,0.0,0.0,0.0,74.79905,1.0,1.0,1.0,1.0,1.0,10.39,
2025-10-24 13:23:55.157,,,,,,,,,,,,,,,,,,,,,,,,,,,,,,,,,,,,,,,,,,,,,,,,,,,,,,,,,,/muse/elements/blink
2025-10-24 13:23:55.505,0.29320717,-0.16573864,0.8812926,1.6004999,0.14806524,-0.08802868,0.3209928,1.5764972,0.25803193,-0.22946678,0.45341545,1.3502661,0.8897649,0.42754993,0.40672696,0.89629585,0.49854007,0.42661738,0.42400557,0.46429294,751.6847,737.4351,746.90533,729.9121,858.24634,863.55676,847.09454,1402.826,-0.14691162109375,0.00274658203125,1.0009765625,-2.10845947265625,-0.31402587890625,2.6617431640625,0.9079598502729896,0.7861335622153875,0.7420356197696875,0.5881963617290131,12.002117159001502,11.114176859070644,13.16004673008607,11.052165081181604,0.0,0.0,0.0,0.0,0.0,0.0,0.0,0.0,74.48318,1.0,1.0,1.0,1.0,1.0,10.38,
2025-10-24 13:23:56.014,0.29320717,-0.16573864,0.8812926,1.6004999,0.14806524,-0.08802868,0.3209928,1.5764972,0.25803193,-0.22946678,0.45341545,1.3502661,0.8897649,0.42754993,0.40672696,0.89629585,0.49854007,0.42661738,0.42400557,0.46429294,783.28143,763.63306,696.27966,720.1764,849.0417,852.3164,840.9876,1450.0,-0.13995361328125,-0.01190185546875,1.0050048828125,-1.435546875,-0.0897216796875,-0.515899658203125,0.9056405121235964,0.7866828791455069,0.73501657010705,0.5850530481844408,11.971111270056982,11.098704432205611,13.114728083351215,11.03565505567079,0.0,0.0,0.0,0.0,0.0,0.0,0.0,0.0,74.322334,1.0,1.0,1.0,1.0,1.0,10.38,
2025-10-24 13:23:56.155,,,,,,,,,,,,,,,,,,,,,,,,,,,,,,,,,,,,,,,,,,,,,,,,,,,,,,,,,,/muse/elements/blink
2025-10-24 13:23:56.520,0.29320717,-0.16573864,0.8812926,1.6004999,0.14806524,-0.08802868,0.3209928,1.5764972,0.25803193,-0.22946678,0.45341545,1.3502661,0.8897649,0.42754993,0.40672696,0.89629585,0.49854007,0.42661738,0.42400557,0.46429294,704.15674,686.01294,704.5993,698.0498,393.58786,387.56943,425.18463,967.72876,-0.1383056640625,-0.0054931640625,1.00970458984375,-1.65985107421875,-0.179443359375,-0.680389404296875,0.9063729346970888,0.7917488019454975,0.7390143766540305,0.5917364041675608,12.011180888348472,11.122447130629665,13.179455928283623,11.086009107598407,0.0,0.0,0.0,0.0,0.0,0.0,0.0,0.0,74.38496,1.0,2.0,1.0,1.0,2.0,10.36,
2025-10-24 13:23:57.030,0.29320717,-0.16573864,0.8812926,1.6004999,0.14806524,-0.08802868,0.3209928,1.5764972,0.25803193,-0.22946678,0.45341545,1.3502661,0.8897649,0.42754993,0.40672696,0.89629585,0.49854007,0.42661738,0.42400557,0.46429294,733.8064,726.0178,730.9742,726.1063,847.8911,861.9636,843.46576,1450.0,-0.130859375,-0.01202392578125,1.00506591796875,-1.68975830078125,-2.0037841796875,1.854248046875,0.9058541353741985,0.7896430870467063,0.7326361967431991,0.5848394249338388,11.99412154590754,11.113535989318835,13.139935626922252,11.068492001049044,0.0,0.0,0.0,0.0,0.0,0.0,0.0,0.0,74.26259,1.0,2.0,1.0,1.0,2.0,10.36,
2025-10-24 13:23:57.542,0.29320717,-0.16573864,0.8812926,1.6004999,0.14806524,-0.08802868,0.3209928,1.5764972,0.25803193,-0.22946678,0.45341545,1.3502661,0.8897649,0.42754993,0.40672696,0.89629585,0.49854007,0.42661738,0.42400557,0.46429294,644.5035,692.73944,808.6828,678.66693,858.6889,868.24756,851.9624,1450.0,-0.1395263671875,-0.04736328125,1.01934814453125,-5.921630859375,-0.201873779296875,13.68255615234375,0.909577283456119,0.7920234604105572,0.7356269222516272,0.5867315165820279,11.998546598955723,11.115153422501969,13.156170993968004,11.077189519109268,0.0,0.0,0.0,0.0,0.0,0.0,0.0,0.0,73.954704,1.0,2.0,1.0,1.0,2.0,10.35,
2025-10-24 13:23:57.769,,,,,,,,,,,,,,,,,,,,,,,,,,,,,,,,,,,,,,,,,,,,,,,,,,,,,,,,,,/muse/elements/blink
2025-10-24 13:23:58.051,0.29320717,-0.16573864,0.8812926,1.6004999,0.14806524,-0.08802868,0.3209928,1.5764972,0.25803193,-0.22946678,0.45341545,1.3502661,0.8897649,0.42754993,0.40672696,0.89629585,0.49854007,0.42661738,0.42400557,0.46429294,755.4019,726.0178,734.3374,744.9582,828.86224,841.8727,824.3484,1398.0468,-0.14215087890625,-0.0467529296875,0.9951171875,-2.654266357421875,-0.34393310546875,-2.295379638671875,0.9161996042247812,0.7947090098466967,0.7419440669480009,0.5894781012326252,12.015697494218344,11.127543571036885,13.180401974107715,11.097483727916458,0.0,0.0,0.0,0.0,0.0,0.0,0.0,0.0,73.57272,1.0,2.0,1.0,1.0,2.0,10.35,
2025-10-24 13:23:58.558,0.29320717,-0.16573864,0.8812926,1.6004999,0.14806524,-0.08802868,0.3209928,1.5764972,0.25803193,-0.22946678,0.45341545,1.3502661,0.8897649,0.42754993,0.40672696,0.89629585,0.49854007,0.42661738,0.42400557,0.46429294,751.8617,713.0074,746.90533,788.76886,861.8751,856.56476,843.5543,1450.0,-0.143310546875,-0.0303955078125,1.00933837890625,-4.119720458984375,0.994415283203125,10.310516357421877,0.9173897909067068,0.7927253653768209,0.7399299048708963,0.5849004601482966,12.011425029206304,11.111094580740527,13.17365758291014,11.070231504661088,0.0,0.0,0.0,0.0,0.0,0.0,0.0,0.0,73.18618,1.0,2.0,1.0,1.0,2.0,10.34,
2025-10-24 13:23:58.749,,,,,,,,,,,,,,,,,,,,,,,,,,,,,,,,,,,,,,,,,,,,,,,,,,,,,,,,,,/muse/elements/blink
2025-10-24 13:23:59.072,0.29320717,-0.16573864,0.8812926,1.6004999,0.14806524,-0.08802868,0.3209928,1.5764972,0.25803193,-0.22946678,0.45341545,1.3502661,0.8897649,0.42754993,0.40672696,0.89629585,0.49854007,0.42661738,0.42400557,0.46429294,741.4179,730.9742,746.90533,737.1696,814.08167,820.80817,809.1253,1399.9939,-0.1492919921875,-0.03692626953125,1.0123291015625,-2.0037841796875,-0.740203857421875,-0.695343017578125,0.9221200200271796,0.7995307917888563,0.7496345039696731,0.59683284457478,12.05378346803996,11.1399337195718,13.247845886083494,11.11960899315738,0.0,0.0,0.0,0.0,0.0,0.0,0.0,0.0,72.615585,1.0,2.0,1.0,1.0,2.0,10.34,
2025-10-24 13:23:59.573,0.29320717,-0.16573864,0.8812926,1.6004999,0.14806524,-0.08802868,0.3209928,1.5764972,0.25803193,-0.22946678,0.45341545,1.3502661,0.8897649,0.42754993,0.40672696,0.89629585,0.49854007,0.42661738,0.42400557,0.46429294,679.37494,691.2348,710.4407,696.19116,393.67636,388.4545,418.72366,946.4872,-0.17193603515625,-0.0303955078125,0.99932861328125,-6.0113525390625,5.749664306640625,19.8883056640625,0.9238290060319958,0.7950447035262141,0.7502143385070215,0.5920415802398493,12.042430918150824,11.12736046539351,13.232556564861836,11.091685382542977,0.0,0.0,0.0,0.0,0.0,0.0,0.0,0.0,71.9447,1.0,2.0,1.0,1.0,2.0,10.32,
2025-10-24 13:23:59.643,,,,,,,,,,,,,,,,,,,,,,,,,,,,,,,,,,,,,,,,,,,,,,,,,,,,,,,,,,/muse/elements/blink
2025-10-24 13:24:00.085,0.29320717,-0.16573864,0.8812926,1.6004999,0.14806524,-0.08802868,0.3209928,1.5764972,0.25803193,-0.22946678,0.45341545,1.3502661,0.8897649,0.42754993,0.40672696,0.89629585,0.49854007,0.42661738,0.42400557,0.46429294,799.92065,723.6282,723.0086,777.61707,835.67725,845.85547,827.4461,1450.0,-0.177734375,-0.0654296875,1.043701171875,0.964508056640625,-27.9931640625,-12.508697509765623,0.9466866938464106,0.8093879789237775,0.7733161671792671,0.6073309014615073,12.060894070524284,11.149119519347686,13.266980425815987,11.122782824309182,0.0,0.0,0.0,0.0,0.0,0.0,0.0,0.0,71.29911,1.0,2.0,1.0,1.0,2.0,10.32,
2025-10-24 13:24:00.130,,,,,,,,,,,,,,,,,,,,,,,,,,,,,,,,,,,,,,,,,,,,,,,,,,,,,,,,,,/muse/elements/blink
2025-10-24 13:24:00.586,0.29320717,-0.16573864,0.8812926,1.6004999,0.14806524,-0.08802868,0.3209928,1.5764972,0.25803193,-0.22946678,0.45341545,1.3502661,0.8897649,0.42754993,0.40672696,0.89629585,0.49854007,0.42661738,0.42400557,0.46429294,740.35583,725.6638,732.7443,738.4087,838.2439,831.60596,819.4805,1450.0,-0.13433837890625,-0.04608154296875,1.02423095703125,-1.39068603515625,1.816864013671875,-1.697235107421875,0.938843668788594,0.8046882674105333,0.7665412583744606,0.6054082922060893,12.07780082492907,11.141764776005532,13.29475144839425,11.121043320697137,0.0,0.0,0.0,0.0,0.0,0.0,0.0,0.0,70.935875,1.0,2.0,1.0,1.0,2.0,10.31,
2025-10-24 13:24:01.093,0.29320717,-0.16573864,0.8812926,1.6004999,0.14806524,-0.08802868,0.3209928,1.5764972,0.25803193,-0.22946678,0.45341545,1.3502661,0.8897649,0.42754993,0.40672696,0.89629585,0.49854007,0.42661738,0.42400557,0.46429294,733.9834,727.2569,720.70746,740.5329,822.13574,854.6176,839.74854,1450.0,-0.13153076171875,-0.04583740234375,1.00054931640625,-0.949554443359375,-0.366363525390625,1.143951416015625,0.935608802422335,0.7997749326466872,0.761719476432301,0.5992437355458599,12.049144791741172,11.115397563359798,13.25410199556541,11.079691962902034,0.0,0.0,0.0,0.0,0.0,0.0,0.0,0.0,70.77076,1.0,2.0,1.0,1.0,2.0,10.31,
2025-10-24 13:24:01.608,0.29320717,0.09518674,0.2692892,0.24389014,0.14806524,-0.09713254,-0.45478702,-0.15746671,0.25803193,0.06570354,0.26843515,0.35538015,0.8897649,0.45370662,0.54290813,0.6789207,0.49854007,0.31424388,0.5607317,0.53708637,735.134,734.1604,735.134,731.94775,812.8426,818.41846,807.8862,1449.9115,-0.10992431640625,-0.04278564453125,1.0147705078125,-1.143951416015625,-1.577606201171875,-0.22430419921875,0.9360970841379967,0.7983711227141597,0.7666328111961471,0.6019903201964572,12.09223565314832,11.147471568557329,13.324536633049616,11.134806761557352,0.0,0.0,0.0,0.0,0.0,0.0,0.0,0.0,70.85943,1.0,2.0,1.0,1.0,2.0,10.3,
2025-10-24 13:24:02.124,0.078234844,0.21220103,0.07489909,0.18200536,-0.19040363,-0.055307582,-0.08981566,0.40581214,0.2791101,0.23031057,0.32243413,0.41004202,0.53754747,0.46456686,0.46769282,0.7863104,0.36088967,0.33390146,0.4419914,0.4960449,744.6042,721.85803,742.56854,748.764,853.99805,852.582,839.66003,1443.185,-0.12127685546875,-0.02764892578125,0.96063232421875,-0.336456298828125,-8.097381591796875,-6.183319091796875,0.9309701261235486,0.7953193619912738,0.7615058531816989,0.5986028657940539,12.068889683618243,11.127665641465798,13.295026106859307,11.109416112342942,0.0,0.0,0.0,0.0,0.0,0.0,0.0,0.0,71.425674,1.0,1.0,1.0,1.0,1.0,10.3,
2025-10-24 13:24:02.639,0.25624114,0.21300083,0.027284296,0.1765799,0.16517809,-0.1368479,-0.08915037,0.47124717,0.29284167,0.20493484,0.32243413,0.48459983,0.5203174,0.38737383,0.40289366,0.8287155,0.2521633,0.35849613,0.380429,0.5139752,734.60297,726.9029,735.57654,737.5237,870.0177,879.6649,863.1142,1450.0,-0.0810546875,-0.0439453125,1.01904296875,-1.622467041015625,0.9271240234375,-0.157012939453125,0.9196786114488712,0.7914741434804378,0.7473762010347376,0.5910955344157547,12.026256586319528,11.096232506020074,13.239178885630498,11.072672913239396,0.0,0.0,0.0,0.0,0.0,0.0,0.0,0.0,71.91487,1.0,1.0,1.0,1.0,1.0,10.29,
2025-10-24 13:24:03.149,0.5179641,0.2440593,-0.016895989,0.24752168,0.38595125,-0.19482379,-0.08521033,0.55603725,0.31475973,0.16828302,0.041893758,0.4473021,0.5309461,0.2324654,0.31007224,0.9024586,0.21401304,0.38657826,0.25421637,0.5524639,671.5864,755.2249,720.4419,641.93677,862.9372,860.1935,853.73254,1450.0,-0.06781005859375,-0.0233154296875,1.0252685546875,2.564544677734375,-10.639495849609377,-16.546173095703125,0.9264535202536776,0.7993476861454831,0.7566230360250816,0.6001287461554967,12.06071096488091,11.129344109863386,13.293500226497866,11.12897789857664,0.0,0.0,0.0,0.0,0.0,0.0,0.0,0.0,72.643135,1.0,1.0,1.0,1.0,1.0,10.29,
2025-10-24 13:24:03.661,0.6093067,0.43706462,0.24210057,0.28521857,0.47821882,-0.13289355,-0.114384726,0.5070717,0.23027246,-0.03925526,-0.07954718,0.39380327,0.5136426,0.15249582,0.2327354,0.9193155,0.115335934,0.37418446,0.22378226,0.586936,721.681,729.29254,745.66626,719.3798,825.23346,831.3404,813.63916,1400.1709,0.02008056640625,-0.01605224609375,1.072021484375,1.831817626953125,-5.5029296875,5.06927490234375,0.909180554562144,0.7926948477695921,0.7325446439215125,0.5887761962663615,12.002635958324392,11.086497389314069,13.210309229192,11.076121402856256,0.0,0.0,0.0,0.0,0.0,0.0,0.0,0.0,73.40525,1.0,1.0,1.0,1.0,1.0,10.28,
2025-10-24 13:24:04.169,0.72916317,0.48449835,0.43984157,0.37826732,0.51108754,-0.089711785,-4.1422387e-05,0.43513438,0.19141987,-0.3740547,-0.06332705,0.28926024,0.53494316,0.15726104,0.17090873,0.9414855,0.2134223,0.36626977,0.20291756,0.6255965,743.27655,736.01904,740.00183,732.8328,856.0337,860.3705,852.759,1450.0,-0.00872802734375,-0.0380859375,1.02484130859375,-2.8411865234375,1.1065673828125,-0.82244873046875,0.9034737620103472,0.7926338125551343,0.7247321364709248,0.5867925517964857,11.982799513625634,11.057108933552678,13.18702429487638,11.053446820685217,0.0,0.0,0.0,0.0,0.0,0.0,0.0,0.0,74.43581,1.0,1.0,1.0,1.0,1.0,10.28,
2025-10-24 13:24:04.681,0.72672874,0.42506033,0.397066,0.4017844,0.4959726,-0.15188876,-0.0045957807,0.39376864,0.1629262,-0.33462775,-0.062544346,0.26239693,0.52938163,0.1458108,0.0930753,0.92979896,0.20281321,0.269932,0.15453847,0.58083797,732.47876,730.3546,751.4191,749.0295,830.5439,844.7049,840.7221,1397.6927,-0.02001953125,-0.0386962890625,1.015380859375,-1.801910400390625,-0.6280517578125,0.740203857421875,0.8966378179910831,0.7927253653768209,0.7213141644612927,0.5886846434446749,12.009166726271369,11.06937701165868,13.234387621295568,11.08884724507069,0.0,0.0,0.0,0.0,0.0,0.0,0.0,0.0,74.764694,1.0,1.0,1.0,1.0,1.0,10.27,
2025-10-24 13:24:05.194,0.72672874,-0.38551134,0.2691952,0.31042868,0.4959726,-0.3691558,-0.068830535,-0.14095517,0.1629262,-0.2462682,0.09451284,0.42860907,0.52938163,0.20695727,0.018610984,0.5583057,0.20281321,0.39016545,0.17383385,0.35334116,727.61096,729.6466,738.85126,731.1512,831.51746,838.86346,824.4369,1397.4272,0.00079345703125,-0.03631591796875,1.0147705078125,-0.231781005859375,-1.734619140625,1.36077880859375,0.8936470924826551,0.7936714112009156,0.7143256324058842,0.5857854707579334,11.978435495791908,11.040110626326204,13.184125122189638,11.047221228810528,0.0,0.0,0.0,0.0,0.0,0.0,0.0,0.0,74.84598,1.0,1.0,1.0,1.0,1.0,10.27,
2025-10-24 13:24:05.708,0.66105086,-0.35738617,0.0065636155,0.5653176,0.5556401,-0.29710296,-0.20616159,-0.15586469,0.7029782,-0.11367799,0.19990093,0.5225402,0.74419415,0.23479317,0.0357131,0.6441709,0.34904155,0.3257804,0.15908001,0.3089821,739.20526,733.36383,734.4259,733.45233,833.5531,847.8911,823.3748,1450.0,-0.0003662109375,-0.02215576171875,1.02276611328125,-0.10467529296875,-0.007476806640625,1.06170654296875,0.892578976229645,0.7952278091695872,0.7125556111866104,0.5854192594711871,11.976879097823236,11.02976515747562,13.187207400519751,11.041239777793672,0.0,0.0,0.0,0.0,0.0,0.0,0.0,0.0,74.15321,1.0,1.0,1.0,1.0,1.0,10.25,
2025-10-24 13:24:06.219,0.5575855,-0.1942501,-0.028650664,0.5455549,0.6003256,-0.062766574,-0.2162293,0.20726638,0.9199326,-0.017996686,0.13470331,0.79290706,0.8169366,0.27973303,0.018234989,0.5968929,0.36723673,0.27393374,0.18974145,0.3578424,743.09955,730.2661,741.595,745.66626,821.4277,838.95197,822.9323,1397.3387,-0.00592041015625,-0.0107421875,1.01922607421875,-2.385101318359375,-1.30096435546875,-0.186920166015625,0.8929757051236201,0.7959907493503088,0.7142645971914264,0.5854802946856448,12.001293183606323,11.033885034451515,13.21027871158477,11.041209260186443,0.0,0.0,0.0,0.0,0.0,0.0,0.0,0.0,73.90443,1.0,1.0,1.0,1.0,1.0,10.25,
2025-10-24 13:24:06.731,0.4646743,0.037767306,-0.25080946,0.4673783,0.5912791,0.05425281,-0.2709033,0.33562794,0.96781766,0.032918226,0.06866525,0.78514045,0.7778432,0.22056895,0.17995912,0.61091346,0.33354667,0.16372664,0.21852267,0.33372608,717.96375,733.8949,740.44434,718.8488,829.7473,829.8358,823.9059,1398.2238,-0.01397705078125,-0.03350830078125,1.0111083984375,-1.338348388671875,-1.0467529296875,0.052337646484375,0.8965462651693965,0.7974861121045228,0.7156989247311828,0.5831304389290227,12.002269747037646,11.02714064325394,13.2014286054884,11.015025153184084,0.0,0.0,0.0,0.0,0.0,0.0,0.0,0.0,73.9836,1.0,1.0,1.0,1.0,1.0,10.24,
2025-10-24 13:24:07.236,0.44805855,0.027972177,-0.4031461,0.3397899,0.6192438,0.013414367,-0.24436487,0.44066253,1.0265554,0.17276472,0.035247,0.79902357,0.75375473,0.26919788,0.22740111,0.63565457,0.3409364,0.22656491,0.2935991,0.31101465,737.3466,728.319,736.01904,751.4191,843.9968,845.3244,835.94275,1450.0,0.00030517578125,-0.01251220703125,1.03076171875,-1.203765869140625,-1.2261962890625,-0.0,0.8919686240850678,0.796143337386453,0.7124640583649238,0.5827031924278188,12.007061011372578,11.035258326776816,13.221142979758245,11.025462174856353,0.0,0.0,0.0,0.0,0.0,0.0,0.0,0.0,74.32477,1.0,1.0,1.0,1.0,1.0,10.23,
2025-10-24 13:24:07.740,0.67091817,-0.060077686,-0.40591842,0.5868938,0.58594525,-0.14991775,-0.09129455,0.38182664,0.9672142,0.20516464,0.08109914,0.7527155,0.7281537,0.29592565,0.2572131,0.7243726,0.34814036,0.28661284,0.28655663,0.24010223,732.7443,731.59375,733.7179,727.87646,831.0749,828.0657,819.6576,1450.0,-0.0054931640625,-0.0205078125,1.0208740234375,-1.323394775390625,0.037384033203125,0.5084228515625,0.8661507283694538,0.7825324845623822,0.6895148177288224,0.5694585508904942,12.003368380897886,11.030009298333452,13.22630045537992,11.021281262666,0.0,0.0,0.0,0.0,0.0,0.0,0.0,0.0,74.74115,1.0,1.0,1.0,1.0,1.0,10.23,
2025-10-24 13:24:08.247,0.9851442,-0.23867059,-0.4483106,1.0310208,0.64145756,-0.34087986,-0.116903186,0.4876455,0.987976,0.29376057,0.076246575,0.82991165,0.6998992,0.32679752,0.20075464,0.7268236,0.34823322,0.28022414,0.2383067,0.1679614,734.69147,730.4431,741.595,744.9582,870.3717,874.1775,854.5291,1450.0,-0.00238037109375,-0.02374267578125,1.0179443359375,-1.936492919921875,0.2392578125,0.64300537109375,0.86224447464416,0.7801826288057602,0.6829840497818468,0.5643926280905038,11.989757528073817,11.025218033998522,13.202466204134184,11.005534177335909,0.0,0.0,0.0,0.0,0.0,0.0,0.0,0.0,75.07923,1.0,1.0,1.0,1.0,1.0,10.23,
2025-10-24 13:24:08.572,,,,,,,,,,,,,,,,,,,,,,,,,,,,,,,,,,,,,,,,,,,,,,,,,,,,,,,,,,/muse/elements/jaw_clench
2025-10-24 13:24:08.751,0.92545307,-0.1983462,-0.39740413,1.041233,0.45597348,-0.36020407,-0.15216936,0.47173867,0.9252223,0.25398505,0.027543912,0.8014882,0.5714359,0.27243906,0.12517272,0.64937896,0.35217482,0.24752396,0.11930536,0.21620505,735.134,732.8328,734.69147,723.4511,821.87024,827.4461,810.1874,1450.0,-0.0025634765625,-0.02520751953125,1.015869140625,-0.605621337890625,-0.55328369140625,0.515899658203125,0.8656624466537921,0.7808540161647951,0.6875006556517178,0.5697637269627829,12.028575924468925,11.060374317526168,13.266156450420809,11.063609183892426,0.0,0.0,0.0,0.0,0.0,0.0,0.0,0.0,75.3293,1.0,1.0,1.0,1.0,1.0,10.2,
2025-10-24 13:24:08.839,,,,,,,,,,,,,,,,,,,,,,,,,,,,,,,,,,,,,,,,,,,,,,,,,,,,,,,,,,/muse/elements/jaw_clench
2025-10-24 13:24:09.253,0.8248334,-0.16313386,-0.39561,1.0044245,0.37601298,-0.19808854,-0.28406057,0.42810974,0.86248195,0.2304792,-0.07137525,0.81089747,0.44647262,0.23530984,0.026477415,0.5719784,0.49894613,0.20116825,0.011316931,0.24966231,734.2489,732.12476,733.2753,733.45233,851.25433,866.743,843.5543,1450.0,0.00830078125,-0.021240234375,1.02362060546875,-1.55517578125,-0.8074951171875,0.25421142578125,0.8646248480080109,0.7800910759840736,0.6797491834155878,0.5651860858784541,12.00135421882078,11.05390458479365,13.221661779081131,11.047343299239444,0.0,0.0,0.0,0.0,0.0,0.0,0.0,0.0,75.28447,1.0,1.0,1.0,1.0,1.0,10.2,
2025-10-24 13:24:09.669,,,,,,,,,,,,,,,,,,,,,,,,,,,,,,,,,,,,,,,,,,,,,,,,,,,,,,,,,,/muse/elements/jaw_clench
2025-10-24 13:24:09.767,0.15033533,-0.14507745,-0.23217824,0.3044435,0.4211096,0.084424555,-0.19270821,0.3260678,0.79661185,0.14995708,-0.15726946,0.7544059,0.55132616,0.20420963,-0.008419357,0.55061114,0.5623338,0.1770404,0.06706263,0.38795134,710.4407,696.98773,711.5913,715.043,740.7984,766.1997,729.29254,1450.0,0.0111083984375,-0.0235595703125,1.02227783203125,-1.472930908203125,-2.041168212890625,-0.8074951171875,0.8633431085043988,0.7778022554419093,0.6767889755143885,0.5637517583386977,11.993602746584653,11.062052785923754,13.215375151991989,11.061595021815322,0.0,0.0,0.0,0.0,0.0,0.0,0.0,0.0,74.66466,1.0,1.0,1.0,1.0,1.0,10.2,
2025-10-24 13:24:09.839,,,,,,,,,,,,,,,,,,,,,,,,,,,,,,,,,,,,,,,,,,,,,,,,,,,,,,,,,,/muse/elements/jaw_clench
2025-10-24 13:24:10.090,,,,,,,,,,,,,,,,,,,,,,,,,,,,,,,,,,,,,,,,,,,,,,,,,,,,,,,,,,/muse/elements/jaw_clench
2025-10-24 13:24:10.257,,,,,,,,,,,,,,,,,,,,,,,,,,,,,,,,,,,,,,,,,,,,,,,,,,,,,,,,,,/muse/elements/jaw_clench
2025-10-24 13:24:10.274,0.2708392,0.0542266,-0.08230096,0.13632704,0.5719274,0.17081699,-0.24521326,0.2859349,0.65671706,0.22087696,-0.07118832,0.759282,0.6425573,0.15570898,0.019384285,0.6143738,0.5293909,0.16429465,0.08951739,0.3707562,734.3374,731.4167,740.8869,739.7363,816.6484,835.58875,820.80817,1403.3572,0.01641845703125,-0.02655029296875,1.01953125,-1.308441162109375,-0.710296630859375,0.657958984375,0.8604744534248862,0.7746589418973369,0.6762396585842692,0.5662542021314642,12.005260472546077,11.07950885725866,13.237134205946164,11.095652671482728,0.0,0.0,0.0,0.0,0.0,0.0,0.0,0.0,74.098206,1.0,1.0,1.0,1.0,1.0,10.19,
2025-10-24 13:24:10.434,,,,,,,,,,,,,,,,,,,,,,,,,,,,,,,,,,,,,,,,,,,,,,,,,,,,,,,,,,/muse/elements/jaw_clench
2025-10-24 13:24:10.789,0.21692845,0.12059566,-0.06633774,0.19959176,0.5551845,0.1489561,-0.2818698,0.250102,0.60493815,0.21488428,-0.06809033,0.76388305,0.6894883,0.107427396,-0.016083397,0.6816371,0.2562615,0.16311495,0.12148526,0.2941145,736.10754,732.7443,735.84204,731.68225,821.4277,834.1726,814.17017,1450.0,0.0078125,-0.020751953125,1.0283203125,-0.740203857421875,-0.590667724609375,0.37384033203125,0.8592842667429607,0.7728889206780631,0.6715704646782539,0.5636296879097823,11.97703168585938,11.068675106692416,13.190564337314928,11.072123596309275,0.0,0.0,0.0,0.0,0.0,0.0,0.0,0.0,73.727196,1.0,1.0,1.0,1.0,1.0,10.19,
2025-10-24 13:24:11.299,0.25479636,0.16429988,-0.17152476,0.34393066,0.40669772,-0.027826738,-0.4968227,0.31861213,0.6452569,0.10697422,-0.07218448,0.77282596,0.6770293,0.10753324,0.01783411,0.66206443,-0.00881384,0.14689296,0.104044616,0.155435,725.30975,734.69147,733.8064,730.5317,827.53467,826.20703,810.80695,1408.1365,0.0279541015625,-0.01458740234375,1.030029296875,-1.592559814453125,-1.016845703125,-0.59814453125,0.8576057983453735,0.7684638676298786,0.6693121617433183,0.5618596666905086,11.96821209737024,11.064677300145435,13.188489140023364,11.077494695181556,0.0,0.0,0.0,0.0,0.0,0.0,0.0,0.0,73.76002,1.0,1.0,1.0,1.0,1.0,10.17,
2025-10-24 13:24:11.321,,,,,,,,,,,,,,,,,,,,,,,,,,,,,,,,,,,,,,,,,,,,,,,,,,,,,,,,,,/muse/elements/jaw_clench
2025-10-24 13:24:11.823,0.23726001,0.11077141,-0.34061077,0.32776055,0.22704647,-0.18604007,-0.37112385,0.32966605,0.6898852,0.1274671,-0.1711386,0.5716157,0.61274636,0.111207545,-0.0011076919,0.5608563,0.00080691173,0.15360609,0.10393183,0.14367595,726.5489,732.7443,738.58575,726.4603,837.0933,839.21747,817.53345,1410.7031,0.017578125,-0.02294921875,1.032470703125,-1.65985107421875,-0.575714111328125,-0.04486083984375,0.8579720096321197,0.7671210929118089,0.6684271511336815,0.56262260687123,11.976573921750948,11.06345659585628,13.19022864363541,11.075907779605656,0.0,0.0,0.0,0.0,0.0,0.0,0.0,0.0,73.78749,1.0,1.0,1.0,1.0,1.0,10.17,
2025-10-24 13:24:12.006,,,,,,,,,,,,,,,,,,,,,,,,,,,,,,,,,,,,,,,,,,,,,,,,,,,,,,,,,,/muse/elements/jaw_clench
2025-10-24 13:24:12.336,0.3368038,0.07563062,-0.17213471,0.30746466,0.49928653,-0.3146722,-0.34605506,0.48776424,0.8024534,0.14294522,-0.18109532,0.72760767,0.5668093,0.14829959,0.065152735,0.5021027,0.013954788,0.122706145,0.07481829,0.15464497,710.3522,693.6245,708.7591,715.39703,802.9299,806.3816,772.12964,1450.0,0.01953125,-0.0189208984375,1.025390625,-1.39068603515625,-0.35888671875,-0.11962890625,0.8533028157261044,0.761933099682903,0.6613470662565863,0.5566716734616026,11.941295567794388,11.024790787497318,13.129223946784922,11.014994635576857,0.0,0.0,0.0,0.0,0.0,0.0,0.0,0.0,73.87468,1.0,1.0,1.0,1.0,1.0,10.16,
2025-10-24 13:24:12.387,,,,,,,,,,,,,,,,,,,,,,,,,,,,,,,,,,,,,,,,,,,,,,,,,,,,,,,,,,/muse/elements/jaw_clench
2025-10-24 13:24:12.696,,,,,,,,,,,,,,,,,,,,,,,,,,,,,,,,,,,,,,,,,,,,,,,,,,,,,,,,,,/muse/elements/jaw_clench
2025-10-24 13:24:12.853,0.5436996,0.014666649,-0.033110783,0.48002395,0.5573421,-0.27030766,-0.22352688,0.53929114,0.76968753,0.22175974,-0.03361168,0.81541914,0.46944404,0.12507336,0.06983179,0.40983284,0.0023659158,0.103713095,0.027818069,0.12427341,719.4683,699.1119,711.9453,716.7247,359.77844,352.78644,397.83618,829.9243,0.019287109375,-0.0086669921875,1.02581787109375,-2.04864501953125,-0.5084228515625,0.665435791015625,0.8503120902176764,0.7573554585985742,0.658630999213218,0.5535283599170302,11.942089025582336,11.018382089979257,13.132916577259614,11.006175047087714,0.0,0.0,0.0,0.0,0.0,0.0,0.0,0.0,74.26506,1.0,1.0,1.0,1.0,1.0,10.16,
2025-10-24 13:24:12.957,,,,,,,,,,,,,,,,,,,,,,,,,,,,,,,,,,,,,,,,,,,,,,,,,,,,,,,,,,/muse/elements/jaw_clench
2025-10-24 13:24:13.356,0.59668267,-0.04676998,0.050500315,0.56789124,0.5585136,-0.17758588,-0.24101172,0.5513442,0.7537242,0.18276498,-0.06957328,0.82446694,0.45127326,0.069898985,0.063198395,0.35585064,-0.027432958,0.060267344,0.010934938,0.075187325,736.19604,731.3282,738.4972,728.85004,898.8708,905.2432,881.70056,1450.0,0.0120849609375,-0.02294921875,1.0203857421875,-1.114044189453125,-1.114044189453125,0.560760498046875,0.8520515938297213,0.7586677157094152,0.659058245714422,0.5543523353122094,11.96555706554133,11.025645280499726,13.158368261688482,11.010722170564812,0.0,0.0,0.0,0.0,0.0,0.0,0.0,0.0,74.771736,1.0,1.0,1.0,1.0,1.0,10.14,
2025-10-24 13:24:13.858,0.6481259,-0.05784654,0.10331444,0.6497103,0.4189808,-0.057520118,-0.18559787,0.48469633,0.5881441,0.13309532,-0.07837412,0.79231673,0.47244823,-0.009744185,0.03523436,0.38247648,0.028983347,0.075071625,0.10753896,0.111927755,748.8525,738.0547,739.11676,743.45355,828.77374,843.8198,821.69324,1450.0,0.0147705078125,-0.01910400390625,1.01953125,-0.994415283203125,-0.79254150390625,0.76263427734375,0.851044512791169,0.7591865150323057,0.654755263095153,0.5499577998712538,11.948863934387145,11.005595212550366,13.126141668454808,10.9728498199938,0.0,0.0,0.0,0.0,0.0,0.0,0.0,0.0,75.38744,1.0,1.0,1.0,1.0,1.0,10.14,
2025-10-24 13:24:14.193,,,,,,,,,,,,,,,,,,,,,,,,,,,,,,,,,,,,,,,,,,,,,,,,,,,,,,,,,,/muse/elements/jaw_clench
2025-10-24 13:24:14.372,0.46668223,-0.0872646,0.03512818,0.50776815,0.29507157,-0.022341577,-0.29430202,0.3046258,0.47374716,0.3223887,-0.11076779,0.38851523,0.5058072,-0.0010319636,0.060168043,0.5093432,0.11891794,0.060408562,0.12756988,0.18099564,738.2317,746.19727,744.6042,734.3374,891.7018,901.6145,872.14185,1450.0,0.02838134765625,-0.0059814453125,1.029541015625,-1.921539306640625,-1.891632080078125,0.64300537109375,0.848236892926114,0.7571113177407434,0.6507879741554013,0.5465398278616217,11.947032877953411,11.008891114131083,13.125836492382518,10.973307584102232,0.0,0.0,0.0,0.0,0.0,0.0,0.0,0.0,75.57809,1.0,1.0,1.0,1.0,1.0,10.13,
2025-10-24 13:24:14.426,,,,,,,,,,,,,,,,,,,,,,,,,,,,,,,,,,,,,,,,,,,,,,,,,,,,,,,,,,/muse/elements/jaw_clench
2025-10-24 13:24:14.880,0.40858674,-0.13037753,-0.12078912,0.3623402,0.27338976,0.023041587,-0.2988029,0.23151854,0.6530379,0.32804704,0.009832569,0.5318071,0.5957756,0.12561564,0.102600284,0.5713848,0.18087746,0.14203097,0.15591167,0.215415,740.9754,742.2145,740.00183,744.0731,881.61206,879.39935,858.6004,1450.0,0.0247802734375,-0.0147705078125,1.021484375,-1.622467041015625,-0.5682373046875,-0.2691650390625,0.8479622344610542,0.7581183987792957,0.6489569177216699,0.5459599933242734,11.954662279760628,11.017100350475646,13.129223946784922,10.977030732184154,0.0,0.0,0.0,0.0,0.0,0.0,0.0,0.0,75.77096,1.0,1.0,1.0,1.0,1.0,10.13,
2025-10-24 13:24:15.390,0.3443214,-0.16522938,-0.4917052,0.23463461,0.10605976,0.029172067,-0.37915793,0.13876097,0.74891454,0.32804704,-0.054317445,0.71079516,0.7731246,0.16032316,0.10094778,0.80665684,0.22518703,0.1594509,0.09348971,0.20764904,740.00183,733.7179,741.772,739.20526,869.9292,879.13385,850.5463,1425.9263,0.02960205078125,-0.021240234375,1.01849365234375,-1.368255615234375,-1.024322509765625,0.94207763671875,0.8456123787044322,0.7575385642419474,0.6413275159144554,0.5399480247001883,11.933513577951029,11.008006103521446,13.08814724745488,10.954356150013114,0.0,0.0,0.0,0.0,0.0,0.0,0.0,0.0,76.08332,1.0,1.0,1.0,1.0,1.0,10.12,
2025-10-24 13:24:15.458,,,,,,,,,,,,,,,,,,,,,,,,,,,,,,,,,,,,,,,,,,,,,,,,,,,,,,,,,,/muse/elements/jaw_clench
2025-10-24 13:24:15.906,0.45358726,-0.04281191,-0.64074916,0.23198204,0.35003045,-0.040741365,-0.34432858,0.4435393,0.76610553,0.133141,0.100662425,0.8798849,0.8348204,0.104601555,0.020061173,0.8738134,0.20158924,0.18458441,0.081274755,0.23499128,737.7892,736.8156,741.0639,736.7271,833.02203,837.0933,822.8438,1449.823,0.03692626953125,-0.027587890625,1.01812744140625,-2.0635986328125,-0.829925537109375,1.084136962890625,0.8433540757694967,0.7547004267696635,0.6411138926638533,0.5390019788760938,11.948863934387145,11.033610375986456,13.12019073504518,10.99534129652147,0.0,0.0,0.0,0.0,0.0,0.0,0.0,0.0,76.28038,1.0,1.0,1.0,1.0,1.0,10.12,
2025-10-24 13:24:16.091,,,,,,,,,,,,,,,,,,,,,,,,,,,,,,,,,,,,,,,,,,,,,,,,,,,,,,,,,,/muse/elements/jaw_clench
2025-10-24 13:24:16.419,0.3491304,0.020657733,-0.6285887,0.20456338,0.2959679,-0.11626519,-0.2948389,0.44804564,0.7209153,-0.018144889,0.14518993,1.1149787,0.79669887,0.01853997,-0.060136862,0.8741111,0.23339835,0.17108126,0.036756556,0.28585577,730.8857,729.8236,741.4179,737.4351,879.9304,879.6649,860.0165,1426.5458,0.03033447265625,-0.01995849609375,1.0218505859375,-1.375732421875,-0.83740234375,0.418701171875,0.8454292730610591,0.75720287056243,0.6391607658012064,0.5386052499821186,11.942760412941372,11.030802756121403,13.093121617433184,10.98200510216246,0.0,0.0,0.0,0.0,0.0,0.0,0.0,0.0,76.31334,1.0,1.0,1.0,1.0,1.0,10.11,
2025-10-24 13:24:16.934,0.1819373,-0.036965568,-0.44248706,0.08850147,0.30435407,-0.239104,-0.32453054,0.46904567,0.6650213,-0.17741255,0.17657994,1.1426034,0.6277111,0.020743519,-0.12719814,0.6653134,0.20087393,0.26360875,0.043127783,0.2723627,773.5458,695.74866,709.2901,767.4388,744.7812,746.90533,727.87646,1450.0,0.03948974609375,-0.03515625,0.98553466796875,-0.2093505859375,-10.4376220703125,-1.03179931640625,0.8464668717068402,0.7574775290274897,0.6365667691867535,0.5366216055122428,11.925670552893212,11.03275588298405,13.067029063252509,10.979624728798608,0.0,0.0,0.0,0.0,0.0,0.0,0.0,0.0,76.00395,1.0,1.0,1.0,1.0,1.0,10.11,
2025-10-24 13:24:17.166,,,,,,,,,,,,,,,,,,,,,,,,,,,,,,,,,,,,,,,,,,,,,,,,,,,,,,,,,,/muse/elements/jaw_clench
2025-10-24 13:24:17.450,-0.115719184,0.17157799,0.24410711,-0.05140814,-0.14180714,-0.22651537,-0.31528732,0.19895034,0.513929,-0.115101874,0.05267409,1.0719042,0.4773583,0.16825618,-0.03992853,0.49952367,0.24498412,0.39740032,0.096406706,0.2932088,734.60297,737.8777,732.5673,732.9213,876.9212,882.40857,850.45776,1450.0,0.14764404296875,-0.0224609375,0.99072265625,0.082244873046875,-20.56869506835937,-3.6785888671875,0.84112629044179,0.7579352931359226,0.6324163746036288,0.5402837183797058,11.888957871396896,11.053965620008109,13.038556135707983,11.012034427675657,0.0,0.0,0.0,0.0,0.0,0.0,0.0,0.0,75.60359,1.0,1.0,1.0,1.0,1.0,10.09,
2025-10-24 13:24:17.959,-0.045812443,0.16972771,0.4021387,0.022938559,-0.07236435,-0.26504046,-0.4999912,0.30579817,0.44584706,0.0116757825,0.03838078,1.0026553,0.47624615,0.416973,0.20943086,0.50894296,0.19670655,0.4583481,0.23612022,0.19329652,741.4179,736.28455,730.2661,747.34784,821.95874,834.7922,805.054,1450.0,0.2923583984375,0.00933837890625,0.9892578125,-1.4654541015625,-4.32159423828125,-0.097198486328125,0.8057563836635434,0.7407233626588465,0.5954290346422526,0.5229802350809432,11.640422478125076,10.9544477028348,12.737652528431443,10.889597787473477,0.0,0.0,0.0,0.0,0.0,0.0,0.0,0.0,75.36428,1.0,1.0,1.0,1.0,1.0,10.09,
2025-10-24 13:24:18.464,0.686473,0.17418842,0.2895698,0.46542826,0.5290968,-0.31690475,-0.4671436,0.38950098,0.29361033,0.06298748,-0.07912141,0.46042535,0.13348815,0.5021423,0.48769706,0.084187396,0.19479884,0.38231102,0.30091518,0.13585457,746.37427,746.63983,741.1524,746.37427,871.1683,881.87756,861.43256,1450.0,0.30706787109375,0.00390625,0.9818115234375,-1.9140625,-1.772003173828125,-0.0299072265625,0.7969673127816322,0.7362372743962043,0.5907903583434662,0.5207524497532365,11.618968600243187,10.94666571299144,12.704662995017047,10.871439811172303,0.0,0.0,0.0,0.0,0.0,0.0,0.0,0.0,75.10989,1.0,1.0,1.0,1.0,1.0,10.09,
2025-10-24 13:24:18.523,,,,,,,,,,,,,,,,,,,,,,,,,,,,,,,,,,,,,,,,,,,,,,,,,,,,,,,,,,/muse/elements/jaw_clench
2025-10-24 13:24:18.981,0.6457354,0.15486424,0.10223319,0.53660095,0.46998602,-0.25514823,-0.44585508,0.3636473,0.3098953,0.08408779,0.1720886,0.46042535,0.16865325,0.41927847,0.44217193,0.17556223,0.16858484,0.28840703,0.29586965,0.14543676,723.4511,742.303,743.7191,732.5673,826.8266,832.31396,832.5795,1450.0,0.28106689453125,0.00341796875,0.97442626953125,-2.97576904296875,0.79254150390625,-0.082244873046875,0.7726752974274611,0.7182013685239492,0.5723272059700069,0.5093083470424147,11.46735712753022,10.872813103497604,12.54127172591374,10.796000286102569,0.0,0.0,0.0,0.0,0.0,0.0,0.0,0.0,75.06763,1.0,1.0,1.0,1.0,1.0,10.09,
2025-10-24 13:24:19.495,0.6457354,0.20280893,0.26969436,0.53660095,0.46998602,-0.11920589,-0.2154127,0.3636473,0.3098953,0.11098737,0.17293142,0.46042535,0.16865325,0.2405313,0.35661352,0.17556223,0.16858484,0.27232698,0.20064057,0.14543676,739.02826,737.3466,741.6835,732.6558,878.2488,875.94763,857.89233,1450.0,0.240478515625,-0.01556396484375,0.99578857421875,-3.267364501953125,10.998382568359377,0.11962890625,0.765381589299764,0.7110907660396252,0.566071096488091,0.5044865651002551,11.433268960255583,10.847086760603675,12.496960160217435,10.758188970746012,0.0,0.0,0.0,0.0,0.0,0.0,0.0,0.0,75.06763,1.0,1.0,1.0,1.0,1.0,10.08,
2025-10-24 13:24:20.004,0.51106465,0.18618786,0.28760508,0.9294595,0.34685758,-0.023712141,-0.15599515,0.37529096,0.25543374,0.10866511,0.1766514,0.6169921,0.17877159,0.07631891,0.2487213,0.62840796,0.13754828,0.20751517,0.16272937,0.19434534,737.8777,741.4179,735.311,739.9133,823.5519,840.45654,825.41046,1450.0,0.18194580078125,-0.00360107421875,1.04052734375,-1.816864013671875,-2.235565185546875,1.614990234375,0.7946784922394678,0.7286383901962187,0.5942998831747848,0.5224614357580526,11.702647879264717,10.992594711870872,12.8059204158024,10.91456119018668,0.0,0.0,0.0,0.0,0.0,0.0,0.0,0.0,75.06763,1.0,1.0,1.0,1.0,1.0,10.08,
2025-10-24 13:24:20.528,0.51106465,0.19119021,0.40772605,0.80987203,0.34685758,0.08094593,-0.03127633,0.31959018,0.25543374,0.115380675,-0.022061653,0.73752725,0.17877159,0.034244664,0.16468528,0.5348114,0.13754828,0.13513014,0.049751543,0.1773705,840.36804,754.25134,712.0338,828.0657,869.8407,877.9833,849.3072,1450.0,0.1646728515625,-0.0057373046875,1.00830078125,-2.250518798828125,-1.203765869140625,0.10467529296875,0.7893379109744176,0.723175738502253,0.5912481224518991,0.5218816012207043,11.675731349688864,10.992228500584126,12.776135231147032,10.91672794029993,0.0,0.0,0.0,0.0,0.0,0.0,0.0,0.0,75.06763,1.0,1.0,1.0,1.0,1.0,10.07,
2025-10-24 13:24:21.035,0.51106465,0.5975919,0.40458807,0.80987203,0.34685758,0.20117724,-0.071825676,0.31959018,0.25543374,0.061967146,-0.058178112,0.73752725,0.17877159,0.04346912,0.13497101,0.5348114,0.13754828,0.030605044,0.024147363,0.1773705,738.67426,742.2145,740.09033,737.8777,863.1142,863.0257,846.298,1450.0,0.16583251953125,-0.01055908203125,1.00555419921875,-0.814971923828125,-0.5084228515625,1.30096435546875,0.7872016784683976,0.7219550342130987,0.5883489497651575,0.5211186610399828,11.658855112891304,10.986369119996183,12.751446486898889,10.908305080704766,0.0,0.0,0.0,0.0,0.0,0.0,0.0,0.0,75.06763,1.0,1.0,1.0,1.0,1.0,10.07,
2025-10-24 13:24:21.538,0.51106465,0.7251892,0.5327593,0.5490735,0.34685758,0.25821137,-0.030518033,0.18424428,0.25543374,0.062974714,-0.06399437,0.6850641,0.17877159,0.12422139,0.04888626,0.39750132,0.13754828,0.013635934,-0.025527824,0.15136856,743.8961,741.4179,742.48,735.0455,816.9139,813.81616,804.16895,1450.0,0.17303466796875,-0.00360107421875,0.99822998046875,-0.994415283203125,-1.786956787109375,1.54022216796875,0.7872016784683976,0.7197577664926209,0.5907293231290084,0.5220647068640775,11.676768948334644,11.012034427675657,12.78980711918556,10.951029730825168,0.0,0.0,0.0,0.0,0.0,0.0,0.0,0.0,75.64252,1.0,1.0,1.0,1.0,1.0,10.06,
2025-10-24 13:24:22.058,0.046154946,0.41847536,-0.27952003,-0.06728216,-0.035687514,-0.19604698,-0.49271587,-0.3321268,-0.15917687,-0.10879368,-0.33054462,0.10347753,0.2440987,0.12345382,-0.18613231,0.132051,-0.2271027,-0.13201346,-0.057648927,0.053804852,702.82916,694.7751,701.9441,698.8464,748.1444,768.6779,731.50525,1450.0,0.18133544921875,-0.0047607421875,1.00421142578125,-1.816864013671875,-0.635528564453125,-0.37384033203125,0.7852790692129795,0.7193915552058746,0.5877385976205803,0.52172901318456,11.658488901604558,11.006205564694945,12.75004267696636,10.935892997639654,0.0,0.0,0.0,0.0,0.0,0.0,0.0,0.0,76.42316,1.0,1.0,1.0,1.0,1.0,10.06,
2025-10-24 13:24:22.577,,,,,,,,,,,,,,,,,,,,,,,,,,,,,,,,,,,,,,,,,,,,,,,,,,,,,,,,,,/muse/elements/jaw_clench
2025-10-24 13:24:22.580,-0.023413727,-0.27928442,-0.32355684,0.06469528,-0.06921304,-0.29894948,-0.55241233,-0.11312111,0.012675533,-0.15851822,-0.27583122,0.29118577,0.6060238,0.115290344,-0.108566925,0.48106983,-0.10586072,-0.0476875,0.021319909,0.092522025,739.38226,736.9041,743.27655,739.9133,860.3705,866.4774,849.74976,1450.0,0.17462158203125,-0.00506591796875,1.00225830078125,-1.398162841796875,0.16448974609375,0.441131591796875,0.7835090479937057,0.7171027346637102,0.5862127172591374,0.5201115800014305,11.647075316500963,11.00281811029254,12.731732112629045,10.929667405764969,0.0,0.0,0.0,0.0,0.0,0.0,0.0,0.0,76.54787,1.0,1.0,1.0,1.0,1.0,10.04,
2025-10-24 13:24:23.094,-0.12924801,-0.38410452,-0.47576502,0.0049594925,-0.0797831,-0.35046345,-0.59683704,-0.1296197,0.09572417,-0.15851822,-0.27630085,0.29315776,0.58972085,0.12681699,-0.050281204,0.47989163,-0.05978353,0.014919426,0.071679845,0.118710466,699.64294,701.059,787.9723,744.7812,826.7381,836.38525,808.9483,1450.0,0.17987060546875,-0.00347900390625,0.99481201171875,-1.256103515625,-0.471038818359375,0.6280517578125,0.7835700832081635,0.7164618649119042,0.5876470447988937,0.5223393653291372,11.656169563455164,11.01273633264192,12.751263381255514,10.951365424504685,0.0,0.0,0.0,0.0,0.0,0.0,0.0,0.0,76.38072,1.0,1.0,1.0,1.0,1.0,10.04,
2025-10-24 13:24:23.608,0.5357742,-0.15005636,-0.51195174,0.19632356,0.20176858,-0.29508603,-0.63221776,-0.024913458,0.8693134,-0.35636407,-0.41877058,0.35824415,0.57619333,0.10562732,0.01476791,0.521325,-0.0655776,0.06758548,0.10533095,0.08405245,713.3614,707.25446,710.1752,699.81995,305.96655,300.39066,378.9843,565.1132,0.1773681640625,-0.0032958984375,0.9984130859375,-1.757049560546875,-0.95703125,0.037384033203125,0.7803962520563622,0.7145087380492573,0.581116276851918,0.5172734425291468,11.613963712657654,10.97077462270224,12.676586796366497,10.883402713206015,0.0,0.0,0.0,0.0,0.0,0.0,0.0,0.0,75.80803,1.0,1.0,1.0,1.0,1.0,10.03,
2025-10-24 13:24:24.117,0.9849836,-0.118907854,-0.6689806,0.7451577,0.49087992,-0.36742094,-0.66606617,0.34457132,0.912208,-0.36199808,-0.46773174,0.6834132,0.45269436,0.14063036,0.106805146,0.5388519,-0.03205792,0.12059914,0.15939924,0.1417941,649.1058,755.2249,740.5329,643.26434,845.3244,852.759,827.9772,1450.0,0.17584228515625,-0.01214599609375,1.00518798828125,-1.667327880859375,0.112152099609375,0.127105712890625,0.7753303292563718,0.7091681567842072,0.5748601673700021,0.5124821781942159,11.580516415134824,10.940134945044464,12.625805497937677,10.835215411391651,0.0,0.0,0.0,0.0,0.0,0.0,0.0,0.0,74.742874,1.0,1.0,1.0,1.0,1.0,10.03,
2025-10-24 13:24:24.187,,,,,,,,,,,,,,,,,,,,,,,,,,,,,,,,,,,,,,,,,,,,,,,,,,,,,,,,,,/muse/elements/blink
2025-10-24 13:24:24.625,1.1717554,0.07104573,0.0834229,0.9113691,0.6400775,-0.29725423,-0.265505,0.47510582,0.912208,-0.513221,-0.26262978,0.6834132,0.3092356,0.063773274,0.040325083,0.5363881,-0.083219506,-0.021313863,-0.022977611,0.10058748,700.35095,692.56244,699.81995,696.19116,750.7111,762.0399,742.126,1450.0,0.16864013671875,-0.010009765625,1.01580810546875,-1.9439697265625,3.289794921875,-0.07476806640625,0.7760322342226355,0.7093512624275803,0.5773015759483108,0.5148625515580669,11.614940276088978,10.956522900126362,12.669903440383376,10.855997901914504,0.0,0.0,0.0,0.0,0.0,0.0,0.0,0.0,74.26292,1.0,1.0,1.0,1.0,1.0,10.01,
2025-10-24 13:24:25.141,1.3434316,0.07104573,0.020902084,1.1777297,0.76774514,-0.29725423,-0.32069588,0.717463,0.89435446,-0.513221,-0.19119205,0.6834132,0.2854959,0.063773274,-0.042033605,0.6159793,0.011275787,-0.021313863,-0.039907187,0.23051256,738.93976,740.35583,743.18805,737.6122,823.9944,830.7209,810.3644,1450.0,0.09881591796875,-0.0067138671875,1.0198974609375,-2.086029052734375,0.067291259765625,-0.61309814453125,0.7979438762129557,0.7229010800371933,0.5951543761771929,0.5229802350809432,11.758220442028469,10.996806141668454,12.814648451469852,10.871348258350618,0.0,0.0,0.0,0.0,0.0,0.0,0.0,0.0,74.28079,1.0,1.0,1.0,1.0,1.0,10.01,
2025-10-24 13:24:25.655,1.3434316,0.2887048,-0.13275646,1.1777297,0.76774514,-0.22547439,-0.4488502,0.717463,0.89435446,-0.12538607,-0.2117666,0.6834132,0.2854959,-0.08007441,-0.090766,0.6159793,0.011275787,0.017596025,-0.084664084,0.23051256,750.9766,738.4972,742.0375,757.26056,856.74176,867.80505,835.2347,1450.0,0.1019287109375,-0.02142333984375,1.008056640625,-1.622467041015625,-0.73272705078125,0.037384033203125,0.7970283479960899,0.7205817418878001,0.5887456786591326,0.5176091362086641,11.74451803638271,10.992442123834728,12.791058341081945,10.857859475955465,0.0,0.0,0.0,0.0,0.0,0.0,0.0,0.0,74.55948,1.0,1.0,1.0,1.0,1.0,10.01,
2025-10-24 13:24:26.165,1.1262838,0.1226025,-0.09705923,1.1975029,0.73063666,-0.22645375,-0.43567657,0.7891448,1.0440551,-0.062128153,-0.1340232,1.3862408,0.47073776,-0.07456629,-0.1295858,0.48393735,0.20831211,-0.045704428,-0.1038456,0.25386605,732.8328,746.46277,749.3835,726.6374,816.1173,823.2863,807.97473,1450.0,0.11700439453125,-0.0189208984375,1.0167236328125,-0.76263427734375,-0.64300537109375,0.396270751953125,0.7973945592828362,0.7211005412106907,0.5904546646639487,0.5193791574279379,11.753825906587512,11.01859571322986,12.810101327992752,10.893351453162625,0.0,0.0,0.0,0.0,0.0,0.0,0.0,0.0,75.10906,1.0,1.0,1.0,1.0,1.0,9.98,
2025-10-24 13:24:26.672,1.0989704,-0.12361126,0.16043559,1.162189,0.729419,-0.31685004,-0.33607438,0.74517906,1.0590672,-0.04183211,-0.13935648,1.3862408,0.4623995,-0.081515305,-0.13851534,0.49074465,0.13128825,-0.08190175,-0.08942014,0.17189929,738.0547,734.0719,742.126,752.1272,819.3035,825.49896,810.54144,1450.0,0.11602783203125,-0.02239990234375,1.0142822265625,-1.996307373046875,0.201873779296875,0.179443359375,0.7975166297117516,0.7233283265383974,0.5885930906229884,0.5180974179243258,11.75089621629354,11.025614762892497,12.799481200677109,10.893992322914432,0.0,0.0,0.0,0.0,0.0,0.0,0.0,0.0,75.78747,1.0,1.0,1.0,1.0,1.0,9.98,
2025-10-24 13:24:27.197,0.9863865,-0.22750503,0.21552704,1.0412793,0.7031922,-0.36417094,-0.16233121,0.65886855,0.9827518,0.07825184,-0.082146615,1.3545616,0.43768105,-0.04373473,-0.11524359,0.47773463,-0.00083115784,-0.09004046,-0.04825577,0.102225564,739.5593,742.0375,745.2237,741.2409,809.5679,816.3828,795.2298,1450.0,0.11212158203125,-0.02362060546875,1.0185546875,-0.46356201171875,0.2691650390625,0.25421142578125,0.7985542283575329,0.7233588441456262,0.587799632835038,0.5167546432062561,11.768077629163388,11.050211954318955,12.824261497746942,10.92798893736738,0.0,0.0,0.0,0.0,0.0,0.0,0.0,0.0,75.80535,1.0,1.0,1.0,1.0,1.0,9.97,
2025-10-24 13:24:27.703,0.8249588,-0.09423166,0.19212613,0.87478733,0.6518172,-0.3448308,-0.052310865,0.6755718,1.2854718,0.16221046,-0.017468605,1.3832247,0.46725178,-0.0114603555,-0.07597199,0.51982504,0.027478848,-0.042390086,-0.06261463,0.029217858,737.7892,742.56854,738.0547,742.92255,805.6736,816.2058,796.73444,1448.8494,0.11920166015625,-0.00665283203125,1.01739501953125,-0.9869384765625,-1.831817626953125,0.396270751953125,0.8011482249719858,0.7256476646877905,0.5935979782085211,0.5212102138616694,11.80543118041151,11.086955153422505,12.878247144934791,10.983225806451612,0.0,0.0,0.0,0.0,0.0,0.0,0.0,0.0,75.80535,1.0,1.0,1.0,1.0,1.0,9.97,
2025-10-24 13:24:28.218,0.7699249,-0.24274811,-0.12093428,0.8237367,0.70505404,-0.30305105,-0.009927904,0.7693716,1.2841789,0.16605207,0.043346092,1.3832247,0.5581012,0.014546426,0.0015551165,0.6462096,0.048834696,-0.07269518,-0.08547169,0.029229203,729.02704,735.311,734.86847,737.8777,849.2187,848.8647,817.97595,1450.0,0.12347412109375,-0.0155029296875,1.0115966796875,-1.74957275390625,-1.016845703125,0.112152099609375,0.8020942707960804,0.7272345802636913,0.5909734639868393,0.5195012278568534,11.797801778604295,11.08408649834299,12.859814510168562,10.975565887037169,0.0,0.0,0.0,0.0,0.0,0.0,0.0,0.0,75.80535,1.0,1.0,1.0,1.0,1.0,9.96,
2025-10-24 13:24:28.734,0.675804,-0.24066484,-0.104805864,0.7211633,0.71532345,-0.17242876,0.0070551815,0.78756803,1.3019258,0.15253486,0.076883376,1.3832247,0.57306004,0.066476256,0.039921734,0.66192317,0.06061737,-0.026762681,-0.08952,0.027346902,712.3878,702.91766,707.7855,713.80396,768.41235,777.52856,752.2157,1450.0,0.1168212890625,-0.02178955078125,1.00225830078125,-1.8841552734375,-0.179443359375,0.4486083984375,0.8005989080418663,0.7253119710082732,0.5880437736928689,0.516785160813485,11.780925541806738,11.073832582314092,12.83231814605536,10.956706005769735,0.0,0.0,0.0,0.0,0.0,0.0,0.0,0.0,75.80535,1.0,1.0,1.0,1.0,1.0,9.96,
2025-10-24 13:24:29.248,0.678912,-0.3384453,-0.08585212,0.66634595,0.6338944,-0.2011585,-0.038257126,0.637504,1.1812234,0.00051846815,0.11911537,1.0228752,0.6181983,0.12153212,0.040465847,0.69597715,0.1319325,0.017804172,-0.044064797,0.06517783,730.3546,739.47076,735.311,727.0799,827.0036,835.85425,804.43445,1450.0,0.12017822265625,-0.0223388671875,1.01751708984375,-1.77947998046875,-1.5252685546875,-0.426177978515625,0.8016365066876475,0.7251899005793577,0.5921331330615359,0.5195927806785399,11.80652981427175,11.085215649810458,12.868573063443243,10.97800729561548,0.0,0.0,0.0,0.0,0.0,0.0,0.0,0.0,76.97517,1.0,1.0,1.0,1.0,1.0,9.96,
2025-10-24 13:24:29.752,0.5001078,-0.24403246,-0.035814457,0.4005496,0.47158268,-0.27581942,-0.15932018,0.43253386,0.8653181,0.07362404,0.17102899,0.95880866,0.61374986,0.076964326,0.011456139,0.67980915,0.13301553,0.076821804,0.026198328,0.075501144,742.2145,743.7191,738.76276,742.126,812.5771,825.32196,820.0116,1450.0,0.1318359375,-0.02392578125,1.0107421875,-1.5850830078125,-0.7476806640625,0.0299072265625,0.7968452423527168,0.718659132632382,0.5840459671458884,0.5121159669074696,11.765025868440503,11.035838161314164,12.804089359368668,10.90394106287104,0.0,0.0,0.0,0.0,0.0,0.0,0.0,0.0,78.410324,1.0,1.0,1.0,1.0,1.0,9.96,
2025-10-24 13:24:30.259,0.6642071,-0.20233451,-0.22481167,0.55273104,0.39906883,-0.52304065,-0.3270305,0.35918236,0.8296445,0.21720383,0.24439463,0.5869419,0.6536452,0.053706184,0.019415805,0.6694585,0.13350941,0.010002609,0.07928386,0.034878008,729.5581,739.47076,744.8697,735.488,820.3656,828.68524,806.3816,1450.0,0.13275146484375,-0.02392578125,1.00787353515625,-1.457977294921875,0.16448974609375,0.171966552734375,0.7903449920129699,0.7104193786805904,0.5784307274157785,0.5060429630689269,11.74262594473452,11.010722170564812,12.77595212550366,10.867106310945807,0.0,0.0,0.0,0.0,0.0,0.0,0.0,0.0,78.77192,1.0,1.0,1.0,1.0,1.0,9.95,
2025-10-24 13:24:30.764,0.6677287,-0.101841666,-0.2624527,0.600542,0.46358714,-0.629664,-0.5141553,0.35312364,0.85104084,0.23986913,0.16025126,0.5651903,0.6325648,0.05857889,0.031519443,0.662881,0.11821889,0.029143032,0.12517172,0.06370444,777.44,733.2753,711.7683,777.263,808.9483,819.6576,797.7965,1450.0,0.13525390625,-0.02227783203125,1.01123046875,-1.487884521484375,-0.874786376953125,-0.007476806640625,0.7931831294852538,0.7096564384998689,0.584168037574804,0.5095524879002455,11.771312495529648,11.02366163602985,12.81791383544334,10.885935674606014,0.0,0.0,0.0,0.0,0.0,0.0,0.0,0.0,78.28932,1.0,1.0,1.0,1.0,1.0,9.95,
2025-10-24 13:24:31.272,0.70507675,-0.022044264,0.7340461,0.609152,0.40501687,-0.4147097,-0.084743254,0.13017316,0.7452184,0.23214805,0.38419884,0.4868599,0.6013812,0.15179117,0.23956814,0.5541582,0.1561863,0.16467053,0.04637712,0.07370249,742.3915,719.2913,737.5237,738.76276,796.20337,807.6207,787.5298,1450.0,0.143310546875,-0.0225830078125,1.01324462890625,-1.323394775390625,-1.614990234375,0.16448974609375,0.7960823021719954,0.7134711394034762,0.5863958229025106,0.512054931693012,11.78995875354648,11.02228834370455,12.82941897336862,10.862559187468708,0.0,0.0,0.0,0.0,0.0,0.0,0.0,0.0,77.59439,1.0,1.0,1.0,1.0,1.0,9.93,
2025-10-24 13:24:31.787,0.6627533,0.3613762,0.8604832,0.57718664,0.4754888,-0.16334891,0.14075312,0.22330524,0.70627004,0.23516595,0.51331747,0.46975783,0.6253589,0.3181012,0.43852568,0.61109763,0.24729632,0.29404736,0.13207394,0.20364004,734.51447,738.1432,722.47754,736.10754,791.7781,806.3816,785.75964,1449.9115,0.153076171875,-0.01708984375,1.014404296875,-1.338348388671875,-0.95703125,0.657958984375,0.797455594497294,0.7175299811649143,0.5893560308037098,0.5171818897074602,11.82496244903798,11.051829387502089,12.88209236344563,10.900919819755382,0.0,0.0,0.0,0.0,0.0,0.0,0.0,0.0,76.897285,1.0,1.0,1.0,1.0,1.0,9.93,
2025-10-24 13:24:32.291,0.6627533,0.4153912,0.93067974,0.5919371,0.4754888,0.033680003,0.28057748,0.047079477,0.70627004,0.29450643,0.5202634,0.18230997,0.6253589,0.45548832,0.5752271,0.43071455,0.24729632,0.3226991,0.25514,-0.14197163,690.7038,706.1039,756.1985,718.49475,798.416,804.7885,773.3687,1450.0,0.1519775390625,-0.020263671875,1.0115966796875,-1.443023681640625,-1.487884521484375,0.530853271484375,0.802613070118971,0.7236029850034571,0.59576472832177,0.5249943971580479,11.857524735951172,11.076426578928546,12.921551629592544,10.92798893736738,0.0,0.0,0.0,0.0,0.0,0.0,0.0,0.0,75.740265,1.0,1.0,1.0,1.0,1.0,9.92,
2025-10-24 13:24:32.801,0.6627533,0.9507011,0.94180924,0.59892774,0.4754888,0.51430625,0.41547284,0.3545843,0.70627004,0.66988623,0.55228436,0.29781112,0.6253589,0.48871812,0.5755675,0.63565993,0.24729632,0.28325093,0.32159233,-0.06251357,732.39026,734.1604,739.11676,737.0811,794.5218,808.41724,787.0872,1450.0,0.1524658203125,-0.01806640625,1.00518798828125,-1.263580322265625,-0.657958984375,0.904693603515625,0.7975166297117516,0.7184760269890089,0.5894170660181675,0.5193181222134802,11.804515652194643,11.047556922490044,12.844403118517988,10.882975466704814,0.0,0.0,0.0,0.0,0.0,0.0,0.0,0.0,74.93388,1.0,1.0,1.0,1.0,1.0,9.92,
2025-10-24 13:24:33.309,0.6627533,1.0444204,0.9589955,0.5846004,0.4754888,0.6356416,0.45623514,0.34898677,0.70627004,0.66567534,0.39770523,0.33238113,0.6253589,0.51279914,0.53973633,0.7584826,0.24729632,0.24813704,0.38632348,0.046882562,737.8777,734.1604,733.5409,734.1604,763.89856,773.2802,739.02826,1450.0,0.15966796875,-0.0206298828125,1.0096435546875,-1.95892333984375,-1.024322509765625,0.9271240234375,0.795716090885249,0.7164923825191332,0.591888992203705,0.5216069427556446,11.80945950456572,11.07096392723458,12.871044989628782,10.926737715470995,0.0,0.0,0.0,0.0,0.0,0.0,0.0,0.0,74.976364,1.0,1.0,1.0,1.0,1.0,9.91,
2025-10-24 13:24:33.816,-0.5196396,1.0080127,0.8168565,0.43034607,0.049219918,0.5669007,0.29744798,0.34135506,0.067070454,0.66010654,0.35306317,0.31454888,0.42113745,0.20653668,0.22610852,0.78858775,0.09492038,0.052900404,0.10371581,0.10455687,741.0639,739.02826,739.6478,739.7363,755.6675,780.4492,767.0848,1421.7665,0.15924072265625,-0.02508544921875,1.00872802734375,-1.697235107421875,-0.88226318359375,-0.11962890625,0.7958076437069356,0.7177436044155163,0.5923467563121378,0.5231938583315452,11.80326443029826,11.077982976897218,12.85426030565291,10.935130057458933,0.0,0.0,0.0,0.0,0.0,0.0,0.0,0.0,75.44478,1.0,1.0,1.0,1.0,1.0,9.91,
2025-10-24 13:24:34.324,-0.21648191,-0.11202887,-0.36802715,0.28456187,0.16996905,-0.8535144,-0.6387324,0.2579965,0.55913156,-0.5077555,0.0054178913,0.6678316,0.41519442,-0.04483986,-0.023225391,0.77097815,0.04574367,-0.12036097,-0.12250657,0.13471341,733.0983,733.8949,738.58575,727.3454,825.32196,828.4197,806.2931,1450.0,0.153076171875,-0.0283203125,1.00653076171875,-1.772003173828125,-0.411224365234375,0.58319091796875,0.7910163793720049,0.7134406217962472,0.5872808335121474,0.518921393319505,11.761150132322438,11.062480032424958,12.80106811625301,10.918162267839689,0.0,0.0,0.0,0.0,0.0,0.0,0.0,0.0,76.2908,1.0,1.0,1.0,1.0,1.0,9.89,
2025-10-24 13:24:34.588,,,,,,,,,,,,,,,,,,,,,,,,,,,,,,,,,,,,,,,,,,,,,,,,,,,,,,,,,,/muse/elements/blink
2025-10-24 13:24:34.839,-0.119175196,-0.04669771,-0.16163643,0.040445823,0.2740717,-0.3731249,-0.06239749,0.34143752,0.6970278,-0.36650404,0.26986578,0.8523298,0.40367597,-0.0009984118,-0.08942385,0.6467175,0.051225778,-0.09746315,-0.17505272,0.106430255,733.0098,709.73267,719.4683,734.957,790.09644,789.12286,768.14685,1450.0,0.16253662109375,-0.02392578125,1.0123291015625,-0.994415283203125,-0.418701171875,0.2691650390625,0.7898872279045371,0.7114874949336003,0.5881963617290131,0.5206303793243211,11.760326156927258,11.072428772381564,12.811016856209616,10.946757265813128,0.0,0.0,0.0,0.0,0.0,0.0,0.0,0.0,75.92719,1.0,1.0,1.0,1.0,1.0,9.89,
2025-10-24 13:24:35.344,0.07396942,-0.0029320712,0.07012882,0.15844342,0.42065084,-0.18188971,0.18951577,0.46370086,0.6970278,-0.47234568,0.21825807,0.8523298,0.3744055,-0.024807518,-0.1091472,0.6503313,0.010231996,-0.10688664,-0.2157327,0.08077766,734.60297,725.13275,726.9029,736.7271,703.62573,713.89246,687.7831,1450.0,0.16009521484375,-0.0137939453125,1.0096435546875,-1.158905029296875,-0.710296630859375,0.560760498046875,0.7854926924635816,0.7073065827432468,0.5824895691772167,0.5146184107002361,11.703502372267124,11.027171160861169,12.727123953937486,10.88257873781084,0.0,0.0,0.0,0.0,0.0,0.0,0.0,0.0,75.4638,1.0,1.0,1.0,1.0,1.0,9.89,
2025-10-24 13:24:35.846,0.13363063,-0.07816911,0.09654748,0.15323876,0.4846208,-0.16911227,0.17817742,0.52466106,0.6970278,-0.46506524,0.21128997,0.8523298,0.3431836,-0.0042297593,-0.09040602,0.647705,0.020069277,-0.101562634,-0.20053898,0.080543585,696.45667,739.8248,741.8605,695.4831,748.4099,754.7824,742.65704,1401.8525,0.161865234375,-0.0203857421875,1.00909423828125,-1.188812255859375,0.299072265625,-0.216827392578125,0.7797553823045562,0.701019955654102,0.5760808716591564,0.5079350547171161,11.66807143027442,10.997141835347971,12.680584602913475,10.84614071477958,0.0,0.0,0.0,0.0,0.0,0.0,0.0,0.0,75.01902,1.0,1.0,1.0,1.0,1.0,9.89,
2025-10-24 13:24:36.353,1.290929,0.19601808,0.32168669,0.15323876,0.59092605,-0.29898298,0.0063862526,0.52466106,0.50689375,-0.5396652,0.19812688,0.8523298,0.4139259,-0.06454252,-0.04016257,0.647705,-0.008313517,-0.13090613,-0.15776727,0.080543585,731.77075,725.6638,724.0707,739.5593,634.85626,634.0597,674.0646,948.6114,0.15679931640625,-0.010986328125,1.00946044921875,-1.472930908203125,-0.889739990234375,-0.142059326171875,0.7832649071358748,0.7065131249552965,0.5792547028109577,0.513336671196624,11.68061416684548,10.99744701142026,12.69523305438333,10.84537777459886,0.0,0.0,0.0,0.0,0.0,0.0,0.0,0.0,74.8501,1.0,1.0,1.0,1.0,1.0,9.88,
2025-10-24 13:24:36.861,1.290929,0.5757895,0.4112579,0.15323876,0.59092605,-0.248401,-0.14308771,0.52466106,0.50689375,-0.20676032,-0.104318656,0.8523298,0.4139259,0.018181656,0.06354733,0.647705,-0.008313517,-0.02065295,-0.02757891,0.080543585,750.00305,733.2753,705.1303,734.51447,803.1954,809.8334,796.64594,1449.292,0.16162109375,-0.0135498046875,1.0035400390625,-1.55517578125,0.2392578125,0.934600830078125,0.7768256920105858,0.7001044274372362,0.5715947833965143,0.5051884700665188,11.621928808144386,10.940684261974583,12.608410461817227,10.762583506186967,0.0,0.0,0.0,0.0,0.0,0.0,0.0,0.0,74.683876,1.0,1.0,1.0,1.0,1.0,9.88,
2025-10-24 13:24:37.376,1.4215555,0.92351997,0.68022525,0.15323876,0.7138304,0.12581126,0.27518854,0.52466106,0.50689375,0.4334854,0.23639484,0.8523298,0.3720984,0.050334148,0.019428493,0.647705,0.07241053,-0.011060067,-0.007893566,0.080543585,730.6202,723.7167,723.0086,722.8316,736.46155,746.63983,726.3718,1393.887,0.240478515625,-0.02313232421875,1.0501708984375,1.831817626953125,-20.7855224609375,-4.777679443359375,0.7553718141286985,0.6800848770951052,0.550140905514627,0.4893193143075126,11.300486851202823,10.8071392127411,12.250347376201034,10.62247717139928,0.0,0.0,0.0,0.0,0.0,0.0,0.0,0.0,74.260124,1.0,1.0,1.0,1.0,1.0,9.86,
2025-10-24 13:24:37.883,1.0507144,1.0842347,0.69365263,0.15323876,0.951195,0.28211898,0.50990474,0.52466106,0.8221622,0.48353875,0.2617264,0.8523298,0.67047817,0.123418264,0.04741124,0.647705,0.13036755,0.027335942,0.054576445,0.080543585,709.4671,717.1672,738.1432,727.0799,783.0159,794.2562,771.68713,1450.0,0.2823486328125,-0.00152587890625,0.96234130859375,-2.100982666015625,1.03179931640625,0.665435791015625,0.6922919199866485,0.6296087547385738,0.4922490046014829,0.44207805831724,10.72886155019908,10.276438023031258,11.63358653410581,10.061533032925638,0.0,0.0,0.0,0.0,0.0,0.0,0.0,0.0,73.83289,1.0,1.0,1.0,1.0,1.0,9.86,
2025-10-24 13:24:38.395,0.90268326,1.2589229,0.6862332,0.5149546,0.88377213,0.4873388,0.4712134,0.65879077,0.8231769,0.48353875,0.26416865,0.44371244,0.6885519,0.13186288,0.103761986,0.4831402,0.14154883,-0.2023082,0.04055319,0.08392028,727.78796,727.52246,727.4339,726.8144,724.77875,751.9502,735.57654,1390.4352,0.2864990234375,0.004150390625,0.9837646484375,-1.57012939453125,0.246734619140625,-0.3887939453125,0.6858527048613594,0.6244207615096679,0.4865727296569153,0.4374698996256825,10.714182581122,10.268686550795127,11.613139737262475,10.04834942660277,0.0,0.0,0.0,0.0,0.0,0.0,0.0,0.0,73.4533,1.0,1.0,1.0,1.0,1.0,9.85,
2025-10-24 13:24:38.836,,,,,,,,,,,,,,,,,,,,,,,,,,,,,,,,,,,,,,,,,,,,,,,,,,,,,,,,,,/muse/elements/blink
2025-10-24 13:24:38.907,0.8515454,0.61185586,0.5388284,0.44460633,0.8427135,-0.20069309,0.31463355,0.5740212,0.8231769,0.3348362,0.24292539,0.5177119,0.6897397,0.36927757,0.17025699,0.45779312,0.13525444,0.18723637,0.14674257,0.076021455,694.6866,724.77875,726.9029,689.19916,605.9147,603.702,592.99274,1345.651,0.25592041015625,-0.01385498046875,0.98895263671875,-2.07855224609375,1.891632080078125,0.276641845703125,0.7034003290179529,0.6451422168180626,0.5043339770641109,0.4564823689292611,10.936442314569772,10.479837875211595,11.853893140690936,10.272165558019216,0.0,0.0,0.0,0.0,0.0,0.0,0.0,0.0,73.55298,1.0,1.0,1.0,1.0,1.0,9.85,
2025-10-24 13:24:39.413,0.6182433,0.6114767,0.3606374,0.2843463,0.7443456,-0.43346575,-0.17881013,0.49741066,0.5392075,-0.055247545,0.15099655,0.4908247,0.702993,0.38774443,0.185991,0.48307425,0.13871172,0.250718,0.1603586,0.057783324,802.57587,713.0074,717.96375,798.7701,730.4431,750.35706,738.93976,1390.7007,0.2449951171875,-0.01556396484375,0.9942626953125,-1.27105712890625,-0.620574951171875,1.136474609375,0.709839544143242,0.6539618053072026,0.5067448680351906,0.4604496578690127,10.983744605774504,10.546457811792196,11.883708842953531,10.321451493693823,0.0,0.0,0.0,0.0,0.0,0.0,0.0,0.0,73.601555,1.0,1.0,1.0,1.0,1.0,9.84,
2025-10-24 13:24:39.925,0.4633172,0.66544116,0.5187036,0.18509017,0.6980252,-0.27953443,-0.059405513,0.33954406,0.33664292,-0.04576833,-0.0065290183,0.41893935,0.7318322,0.3905847,0.10296757,0.44818658,0.105235316,0.34500697,0.15464301,0.063226484,731.1512,724.1592,726.4603,729.6466,549.80164,552.4568,554.2269,1272.5447,0.2528076171875,-0.014404296875,0.978271484375,-0.6878662109375,-1.233673095703125,0.261688232421875,0.7004096035095249,0.6442266886011969,0.5012211811267673,0.4544071716376988,10.89509095677467,10.48881005173688,11.805339627589824,10.281992227546908,0.0,0.0,0.0,0.0,0.0,0.0,0.0,0.0,73.601555,1.0,1.0,1.0,1.0,1.0,9.84,
2025-10-24 13:24:40.450,0.4633172,0.6149903,0.52974087,0.18509017,0.6980252,-0.106612325,-0.14566258,0.33954406,0.33664292,0.055808462,-0.05825352,0.41893935,0.7318322,0.26876822,0.0769229,0.44818658,0.105235316,0.44997153,0.118092276,0.063226484,612.5527,736.5501,731.1512,612.7297,817.4449,823.1093,808.8598,1393.71,0.25726318359375,-0.014404296875,0.98406982421875,-1.6448974609375,0.381317138671875,0.201873779296875,0.7031256705528932,0.6510015974060034,0.5019841213074887,0.4574894499678135,10.938914240755311,10.51929714135851,11.839183654006629,10.308359440192644,0.0,0.0,0.0,0.0,0.0,0.0,0.0,0.0,73.601555,1.0,1.0,1.0,1.0,1.0,9.82,
2025-10-24 13:24:40.699,,,,,,,,,,,,,,,,,,,,,,,,,,,,,,,,,,,,,,,,,,,,,,,,,,,,,,,,,,/muse/elements/blink
2025-10-24 13:24:40.960,0.4633172,0.46568152,0.5321104,0.18509017,0.6980252,-0.105778985,-0.099994145,0.33954406,0.33664292,0.007841587,-0.07343522,0.41893935,0.7318322,0.1733414,0.04728171,0.44818658,0.105235316,0.40670416,0.072833136,0.063226484,734.957,731.77075,729.02704,735.57654,810.2759,821.51624,803.99194,1392.2938,0.2540283203125,-0.00897216796875,0.98681640625,-1.128997802734375,0.575714111328125,0.755157470703125,0.7135626922251628,0.6688849152421144,0.509674558329161,0.4703373626111627,11.03754714731898,10.642954485849843,11.934581694204038,10.429605893712896,0.0,0.0,0.0,0.0,0.0,0.0,0.0,0.0,73.601555,1.0,1.0,1.0,1.0,1.0,9.82,
2025-10-24 13:24:41.471,0.4633172,0.32463926,0.23012142,0.18509017,0.6980252,-0.13881442,0.058961622,0.33954406,0.33664292,-0.030890796,-0.017709704,0.41893935,0.7318322,0.08423321,-0.041206043,0.44818658,0.105235316,0.26223525,-0.017997837,0.063226484,741.949,716.0166,720.3534,739.11676,791.07,805.054,774.1653,1450.0,0.247314453125,-0.013427734375,0.98779296875,-1.652374267578125,0.007476806640625,-0.082244873046875,0.724671101256467,0.6804205707746227,0.5215459075411868,0.482330782252104,11.141703740791074,10.745218987673749,12.057689721765254,10.551004935269294,0.0,0.0,0.0,0.0,0.0,0.0,0.0,0.0,73.601555,1.0,2.0,1.0,1.0,2.0,9.81,
2025-10-24 13:24:41.987,0.4633172,0.5615973,0.640781,0.18509017,0.6980252,-0.011753306,0.3382384,0.33954406,0.33664292,-0.19827443,-0.040638845,0.41893935,0.7318322,0.22432011,-0.046427898,0.44818658,0.105235316,0.05475862,0.059279773,0.063226484,713.71545,715.48553,718.31775,718.9373,444.47903,439.69968,460.14465,1054.3765,0.253662109375,-0.01434326171875,0.99493408203125,-1.8841552734375,-1.024322509765625,0.246734619140625,0.7274176859070643,0.6865546098276232,0.5202946856448036,0.48297165200391,11.152018692034428,10.764872326729131,12.044780773907446,10.552622368452424,0.0,0.0,0.0,0.0,0.0,0.0,0.0,0.0,73.601555,1.0,2.0,1.0,1.0,2.0,9.81,
2025-10-24 13:24:42.488,0.4633172,0.40937808,0.6540221,1.342343,0.6980252,0.018796442,0.31989434,0.4417194,0.33664292,-0.026603812,0.087778166,0.34018773,0.7318322,0.38897538,-0.022527663,0.48261672,0.105235316,0.08460303,0.12262632,-0.008521814,752.65826,714.24646,724.1592,753.98584,770.71356,776.0239,743.8076,1450.0,0.2623291015625,-0.01702880859375,0.99066162109375,-1.308441162109375,-1.622467041015625,-0.34393310546875,0.7182929213456357,0.6774908804806523,0.5104069809026536,0.4733586057268197,11.042552034904514,10.690806093984694,11.922069475240209,10.46637961042367,0.0,0.0,0.0,0.0,0.0,0.0,0.0,0.0,73.50343,1.0,1.0,1.0,1.0,1.0,9.8,
2025-10-24 13:24:42.997,0.4633172,0.30365098,0.6476151,1.342343,0.6980252,-0.06276737,0.2204931,0.4417194,0.33664292,0.016743666,0.0683281,0.34018773,0.7318322,0.39958173,0.069516465,0.48261672,0.105235316,0.19493343,0.19447938,-0.008521814,708.1395,702.91766,715.30853,718.6718,778.94464,779.7412,742.303,1450.0,0.26678466796875,-0.01055908203125,0.976806640625,-1.6448974609375,-0.695343017578125,0.1495361328125,0.7084357342107146,0.6601873971818897,0.5013432515556827,0.4591984359726295,10.95411200915528,10.557474668001811,11.828990773192189,10.32712776863839,0.0,0.0,0.0,0.0,0.0,0.0,0.0,0.0,72.81107,1.0,1.0,1.0,1.0,1.0,9.8,
2025-10-24 13:24:43.505,0.4633172,-0.006684182,0.1465036,1.163351,0.6980252,-0.24569419,-0.46647742,0.38513184,0.33664292,0.044904694,0.031914115,0.29769224,0.7318322,0.4269675,0.1087374,0.45570853,0.105235316,0.29908016,0.12549184,0.0032931091,701.5901,717.3442,719.3798,706.98895,756.3755,763.102,731.3282,1450.0,0.2615966796875,-0.0123291015625,0.9786376953125,-1.338348388671875,0.179443359375,0.418701171875,0.6983954414324202,0.650879526977088,0.4912724411701595,0.448975037550962,10.865580430584364,10.46210714541163,11.723216746536966,10.209390839949457,0.0,0.0,0.0,0.0,0.0,0.0,0.0,0.0,72.446785,1.0,1.0,1.0,1.0,1.0,9.78,
2025-10-24 13:24:44.019,0.4633172,0.012601528,0.086840875,0.6012861,0.6980252,-0.22444314,-0.26534975,0.3339986,0.33664292,0.037958242,0.03529871,0.28071418,0.7318322,0.3721723,0.09904069,0.5224119,0.105235316,0.32696915,0.06638057,0.004899417,705.3073,712.2108,726.8144,717.2557,761.6859,753.72034,730.7972,1450.0,0.26043701171875,-0.0184326171875,0.9775390625,-0.8673095703125,0.127105712890625,0.61309814453125,0.7051398326299978,0.6582647879264716,0.4996037479436378,0.458435495791908,10.97364327778175,10.565317693059628,11.85328278854636,10.32255012755406,0.0,0.0,0.0,0.0,0.0,0.0,0.0,0.0,72.6337,1.0,1.0,1.0,1.0,1.0,9.78,
2025-10-24 13:24:44.544,0.4633172,0.3833304,0.29983297,0.6012861,0.6980252,-0.20109874,0.014191891,0.3339986,0.33664292,0.055384465,0.03312212,0.28071418,0.7318322,0.24488172,0.07356904,0.5224119,0.105235316,0.2854618,0.039194744,0.004899417,740.7984,739.9133,740.00183,747.9674,847.00604,850.6348,826.5611,1408.6675,0.25262451171875,-0.00994873046875,0.98626708984375,-1.33087158203125,0.52337646484375,0.478515625,0.7078864172805951,0.6621405240445366,0.500000476837613,0.4600224113678087,10.989817609613048,10.580301838208998,11.85544953865961,10.31855232100708,0.0,0.0,0.0,0.0,0.0,0.0,0.0,0.0,72.54097,1.0,1.0,1.0,1.0,1.0,9.78,
2025-10-24 13:24:45.063,0.4633172,0.3625065,0.3135269,0.6012861,0.6980252,-0.15248044,0.01548292,0.3339986,0.33664292,0.3073358,0.044158515,0.28071418,0.7318322,0.140905,0.065543875,0.5224119,0.105235316,0.2260595,0.06805408,0.004899417,719.9109,711.41425,712.8304,712.7419,746.19727,770.271,733.2753,1450.0,0.25054931640625,-0.01861572265625,0.9921875,-1.577606201171875,0.1495361328125,-0.28411865234375,0.7109686956107097,0.6659857425553728,0.5022282621653196,0.4629521016617791,11.025645280499726,10.62702429487638,11.896434685167966,10.364420284672056,0.0,0.0,0.0,0.0,0.0,0.0,0.0,0.0,72.34183,1.0,1.0,1.0,1.0,1.0,9.78,
2025-10-24 13:24:45.574,0.31350547,0.30631545,0.29924592,0.3947854,0.34975356,-0.27468172,-0.15331651,0.32357407,0.7890361,0.27209267,-0.03346812,0.9599919,0.46386656,0.12684332,0.06609597,0.3656997,0.2074209,0.15125723,0.04837199,0.13934638,709.99817,709.64417,717.1672,706.63495,757.43756,771.51013,733.2753,1450.0,0.25146484375,-0.0135498046875,0.98785400390625,-1.45050048828125,0.5682373046875,-0.216827392578125,0.7131659633311875,0.6688238800276566,0.5071721145363947,0.4677738836039387,11.05601029969244,10.661905919938963,11.929302148153448,10.405100255108122,0.0,0.0,0.0,0.0,0.0,0.0,0.0,0.0,72.18618,1.0,1.0,1.0,1.0,1.0,9.77,
2025-10-24 13:24:46.091,0.4824488,-0.15177438,0.03513384,0.3281484,0.44048923,-0.24383098,-0.35443076,0.25658897,0.81626076,0.26138192,-0.035255108,0.9599919,0.46061411,0.1380914,0.058706146,0.4614066,0.21658617,0.10672676,0.039820626,0.14756446,712.9189,714.866,708.405,722.5661,764.07556,772.5722,736.9926,1450.0,0.216064453125,-0.01336669921875,1.01678466796875,-1.65985107421875,7.37213134765625,0.35888671875,0.7176825692010586,0.6718451231433136,0.5084538540400066,0.468567341391889,11.087626540781535,10.69065350594855,11.955821948835323,10.428873471139404,0.0,0.0,0.0,0.0,0.0,0.0,0.0,0.0,72.06162,1.0,1.0,1.0,1.0,1.0,9.77,
2025-10-24 13:24:46.602,0.52577746,-0.17335886,-0.1340331,0.32349086,0.45355287,-0.40792626,-0.2117347,0.2895292,0.85896915,-0.05774815,0.06250588,0.8967608,0.47708607,0.08201511,0.05065638,0.5006839,0.14874138,0.0104589565,-0.024142515,0.107722044,720.61896,706.0154,713.0074,723.0971,749.82605,763.98706,739.6478,1441.8574,0.068115234375,-0.02239990234375,1.0130615234375,-2.25799560546875,9.8095703125,-0.52337646484375,0.7598273847841117,0.6994940752926591,0.5530400782013685,0.4992070190496626,11.480357628209712,10.955820995160098,12.419872684357342,10.735850082254489,0.0,0.0,0.0,0.0,0.0,0.0,0.0,0.0,71.65433,1.0,1.0,1.0,1.0,1.0,9.75,
2025-10-24 13:24:47.104,0.79450965,-0.17041942,-0.2031546,0.6884431,0.512304,-0.44595507,-0.21948835,0.3948123,0.7218455,-0.06563694,0.06250588,0.6760828,0.4114624,-0.046890806,0.0411601,0.50958717,0.108005606,-0.03384261,0.0010172592,0.03891651,711.6798,709.3786,711.5028,696.89923,737.7007,733.9834,716.1051,1445.4862,0.01129150390625,-0.033447265625,1.0240478515625,-2.49725341796875,1.24114990234375,-1.173858642578125,0.7901008511551391,0.7193610375986458,0.5778203752712014,0.5141606465918032,11.719066351953842,11.077860906468302,12.68510120878335,10.85740171184703,0.0,0.0,0.0,0.0,0.0,0.0,0.0,0.0,71.203674,1.0,1.0,1.0,1.0,1.0,9.74,
2025-10-24 13:24:47.612,0.8160879,-0.23237847,-0.21890058,0.8018548,0.4100422,-0.6321461,-0.38652807,0.41257027,0.74341077,0.0056113596,0.02994985,0.69146043,0.35919824,-0.13826902,0.067326054,0.41547847,0.04110765,-0.06748457,-0.014587938,-0.071576364,711.5913,711.14874,718.40625,717.78674,299.85962,300.03662,354.2025,682.38416,-0.002685546875,-0.03155517578125,1.0166015625,-2.534637451171875,0.097198486328125,-1.158905029296875,0.7988288868225926,0.722534868750447,0.5869146222254011,0.5183415587821567,11.7980154018549,11.109934911665832,12.78345945688196,10.899821185895144,0.0,0.0,0.0,0.0,0.0,0.0,0.0,0.0,70.81012,1.0,1.0,1.0,1.0,1.0,9.74,
2025-10-24 13:24:48.119,0.7643594,-0.3464633,-0.26540074,0.7848295,0.41370755,-0.544979,-0.7775255,0.43904278,0.6188793,0.044817626,-0.22870745,0.6802533,0.4026261,-0.17535679,0.026632804,0.39390436,-0.013340975,-0.029904142,0.029403495,-0.11133621,718.6718,707.16595,711.06024,719.8224,746.19727,746.90533,719.9994,1450.0,-0.0076904296875,-0.042236328125,1.02105712890625,-1.18133544921875,-1.099090576171875,0.575714111328125,0.8082893450635387,0.731354457239587,0.5952459289988794,0.5261540662327444,11.85645661969816,11.12894738096941,12.850933886464963,10.925455975967385,0.0,0.0,0.0,0.0,0.0,0.0,0.0,0.0,70.341034,1.0,1.0,1.0,1.0,1.0,9.73,
2025-10-24 13:24:48.626,0.5704896,-0.3433353,-0.30453628,0.6251728,0.30912706,-0.46534982,-0.7020526,0.33941305,0.6802863,0.042973686,-0.12759618,0.6777085,0.45261982,-0.06788897,0.06976707,0.43497124,-0.04127736,0.034634657,0.017038863,-0.05372021,702.4751,705.9269,710.88324,706.63495,747.5249,760.0043,735.57654,1450.0,-0.00274658203125,-0.02276611328125,1.024169921875,-1.27105712890625,-0.897216796875,0.695343017578125,0.808625038743056,0.7308966931311542,0.5928960732422573,0.5227666118303411,11.841594544977708,11.094370931979114,12.81446534582648,10.86731993419641,0.0,0.0,0.0,0.0,0.0,0.0,0.0,0.0,70.06738,1.0,1.0,1.0,1.0,1.0,9.73,
2025-10-24 13:24:49.138,0.6569148,-0.29170722,-0.3817357,0.61669105,0.30603662,-0.37546495,-0.60506666,0.34425095,0.6646965,-0.077955686,-0.07583322,0.7040325,0.52148366,0.033749826,0.03813301,0.5492916,-0.09521169,0.0048402864,-0.008078628,-0.008731633,738.4087,737.2581,735.93054,741.0639,843.7313,866.566,835.1462,1450.0,0.01708984375,-0.03424072265625,1.02703857421875,-1.1962890625,-2.01873779296875,-0.10467529296875,0.8056953484490856,0.7261359464034522,0.590180006198889,0.5191960517845647,11.834911188994589,11.075663638747823,12.815045180363828,10.852824070762702,0.0,0.0,0.0,0.0,0.0,0.0,0.0,0.0,70.06738,1.0,1.0,1.0,1.0,1.0,9.71,
2025-10-24 13:24:49.654,0.632037,-0.17259485,-0.119456254,0.6248651,0.06356676,-0.2544908,-0.5323037,0.21557063,0.6567221,-0.16381012,-0.060759384,0.873329,0.4976331,0.021778883,0.06482946,0.59967804,0.038742784,-0.02996853,-0.050795607,0.02878388,704.42224,702.56366,707.6085,708.7591,759.4732,771.59863,740.17883,1450.0,0.0130615234375,-0.03076171875,1.01318359375,-1.353302001953125,-0.25421142578125,0.28411865234375,0.8045356793743891,0.7271430274420047,0.5882268793362421,0.5177617242448085,11.824321579286174,11.055613570798464,12.794079584197602,10.822001287461555,0.0,0.0,0.0,0.0,0.0,0.0,0.0,0.0,70.06738,1.0,1.0,1.0,1.0,1.0,9.71,
2025-10-24 13:24:50.168,0.53942275,0.11067125,-0.07789513,0.71169543,0.12476814,-0.22119671,-0.49419868,0.29588076,0.92989576,0.049459327,-0.06176017,0.8866896,0.49580547,-0.043596596,0.049193423,0.6094777,0.08626008,-0.07967519,-0.031672515,0.0027551283,706.3694,705.8384,710.88324,706.54645,770.3595,795.4953,760.62384,1450.0,0.011474609375,-0.03668212890625,1.0242919921875,-1.562652587890625,-0.904693603515625,0.725250244140625,0.8020637531888515,0.7238166082540591,0.5832525093579382,0.5123906253725294,11.800975609756096,11.03248122451899,12.755779987125385,10.785532746823067,0.0,0.0,0.0,0.0,0.0,0.0,0.0,0.0,70.06738,1.0,1.0,1.0,1.0,1.0,9.7,
2025-10-24 13:24:50.682,0.31857237,0.1008462,-0.050406683,0.6475199,0.19387662,-0.27336732,-0.48990148,0.26886106,0.9325183,0.15906467,-0.017376037,0.9048125,0.46010613,-0.11919875,0.05033256,0.61521065,0.073254615,-0.10215749,-0.024584072,0.045794055,719.3798,709.2901,709.1131,723.0971,775.5814,770.97906,739.11676,1450.0,0.02130126953125,-0.03692626953125,1.01788330078125,-0.231781005859375,-1.8243408203125,0.366363525390625,0.8037422215864387,0.7251288653649,0.58694513983263,0.5144353050568629,11.83167632262833,11.061472951386405,12.806042486231314,10.833414872565148,0.0,0.0,0.0,0.0,0.0,0.0,0.0,0.0,70.61587,1.0,1.0,1.0,1.0,1.0,9.7,
2025-10-24 13:24:51.183,0.39526233,0.1285209,-0.14453256,0.6042723,0.33557734,-0.4185586,-0.50481427,0.25619912,0.92558384,0.16384532,-0.008366924,0.8361916,0.4586667,-0.13798271,0.07478189,0.6563156,-0.021709062,-0.13407984,-0.08077706,0.03202627,717.2557,706.72345,712.5649,710.88324,787.5298,806.3816,775.40436,1450.0,0.037841796875,-0.0321044921875,1.0302734375,-1.517791748046875,1.27105712890625,0.3289794921875,0.8009956369358415,0.7248542068998403,0.5802923014567389,0.5099797344014496,11.797771260997068,11.045603795627398,12.752239944686837,10.802531054049544,0.0,0.0,0.0,0.0,0.0,0.0,0.0,0.0,71.1475,1.0,1.0,1.0,1.0,1.0,9.69,
2025-10-24 13:24:51.698,0.41552746,-0.11258609,-0.13835801,0.2970576,0.29442745,-0.16443601,-0.40790555,0.21190302,0.9759588,0.07210297,-0.013185663,0.746489,0.47458288,-0.18129267,0.046109345,0.64778835,-0.02615691,-0.15520944,-0.15214671,0.044495672,707.7855,703.36017,712.4763,718.40625,760.97784,767.1733,742.303,1450.0,0.023193359375,-0.03643798828125,1.03375244140625,-1.353302001953125,-0.276641845703125,0.25421142578125,0.802613070118971,0.7256476646877905,0.5790715971675846,0.5065922799990463,11.805309109982597,11.053111127005698,12.758679159812123,10.81116753689531,0.0,0.0,0.0,0.0,0.0,0.0,0.0,0.0,71.52527,1.0,1.0,1.0,1.0,1.0,9.69,
2025-10-24 13:24:52.211,0.36939007,-0.14970711,-0.15861143,0.22315672,0.26249513,-0.13988437,-0.42787278,0.2372948,0.8723531,-0.040248714,-0.14141509,0.5990621,0.45268145,-0.1810742,0.015799602,0.63925046,-0.042402767,-0.14802653,-0.20136419,-0.030860666,718.22925,703.97974,708.1395,714.689,771.86414,786.37915,756.99506,1450.0,0.01983642578125,-0.0263671875,1.024658203125,-1.338348388671875,-0.321502685546875,0.46356201171875,0.8086860739575138,0.7323005030636817,0.5859075411868488,0.5130314951243354,11.848003242495768,11.090128984574305,12.81708986004816,10.864176620651836,0.0,0.0,0.0,0.0,0.0,0.0,0.0,0.0,71.78028,1.0,1.0,1.0,1.0,1.0,9.68,
2025-10-24 13:24:52.724,0.42831346,-0.22795558,-0.016787877,0.2639765,0.29218653,-0.13686517,-0.39487052,0.3377699,0.7307207,-0.13385569,-0.13044101,0.5293997,0.48173717,-0.1023654,-0.005815723,0.61063963,-0.06092511,-0.07522119,-0.11183747,-0.1022059,700.882,701.059,705.6614,705.3073,759.0307,763.89856,730.8857,1450.0,0.01593017578125,-0.0269775390625,1.0172119140625,-1.54022216796875,-1.614990234375,0.142059326171875,0.8090217676370313,0.7338569010323535,0.5818792170326396,0.5087285125050665,11.826518847006652,11.075724673962284,12.778851298190402,10.83655818610972,0.0,0.0,0.0,0.0,0.0,0.0,0.0,0.0,72.10445,1.0,1.0,1.0,1.0,1.0,9.68,
2025-10-24 13:24:53.226,0.45031115,0.13800098,0.17643766,0.23098691,0.3887185,-0.21075198,-0.35890138,0.2974646,0.76366925,-0.040844295,-0.14951839,0.5289634,0.5133197,-0.024473479,-0.04240931,0.615213,-0.10363925,-0.017933792,-0.09201222,-0.1226203,723.6282,703.36017,706.0154,727.61096,775.22736,793.01715,751.4191,1450.0,0.030517578125,-0.02398681640625,1.0211181640625,-1.248626708984375,-0.2691650390625,-0.657958984375,0.8056648308418568,0.7296149536275421,0.5804448894928832,0.5068364208568772,11.823406051069307,11.07978351572372,12.7833984216675,10.85074887347114,0.0,0.0,0.0,0.0,0.0,0.0,0.0,0.0,73.027725,1.0,1.0,1.0,1.0,1.0,9.67,
2025-10-24 13:24:53.740,0.54740846,0.7755217,0.73755777,0.2653607,0.48214132,0.27135164,0.16299193,0.320815,0.5295911,0.24221186,-0.08531858,0.51711553,0.58817756,0.020986568,-0.043518223,0.67238224,-0.067876376,0.014042187,0.013334423,-0.06142922,706.0154,699.81995,708.405,705.4843,767.70435,763.98706,740.26733,1450.0,0.0262451171875,-0.02386474609375,1.01971435546875,-1.60003662109375,-0.650482177734375,0.11962890625,0.809479531745464,0.7338569010323535,0.5825506043916744,0.5084843716472356,11.835307917888564,11.0867415301719,12.793103020766278,10.860514507784377,0.0,0.0,0.0,0.0,0.0,0.0,0.0,0.0,73.68375,1.0,1.0,1.0,1.0,1.0,9.67,
2025-10-24 13:24:54.250,0.61329156,0.8445338,0.7510211,0.2588923,0.46512267,0.2911876,0.19673808,0.11344437,0.48830977,0.24506687,-0.20484246,0.27355403,0.48712626,0.014036791,-0.070349514,0.6345145,0.07933584,-0.046425644,-0.052890584,6.947721e-05,703.97974,701.5016,713.1844,712.4763,766.1112,770.89056,741.2409,1450.0,0.0299072265625,-0.0255126953125,1.0162353515625,-1.71966552734375,-0.34393310546875,0.37384033203125,0.8084419330996829,0.7309272107383831,0.5794683260615597,0.5033574136327874,11.820964642491,11.069682187730969,12.770672579453068,10.836161457215743,0.0,0.0,0.0,0.0,0.0,0.0,0.0,0.0,74.037964,1.0,1.0,1.0,1.0,1.0,9.65,
2025-10-24 13:24:54.760,0.61329156,0.91878074,0.6962557,0.2588923,0.46512267,0.1969872,0.07239416,0.11344437,0.48830977,0.30799282,-0.11353589,0.27355403,0.48712626,0.039527312,-0.056328952,0.6345145,0.07933584,-0.019948993,-0.020819418,6.947721e-05,716.3706,717.69824,716.0166,716.1051,306.14355,302.78033,379.24982,485.19196,0.02618408203125,-0.031982421875,1.02288818359375,-1.368255615234375,-0.97198486328125,0.246734619140625,0.8126228452900365,0.7347724292492192,0.587158763083232,0.5099186991869918,11.86161409531984,11.095103354552608,12.83286746298548,10.880045776410844,0.0,0.0,0.0,0.0,0.0,0.0,0.0,0.0,73.625305,1.0,1.0,1.0,1.0,1.0,9.65,
2025-10-24 13:24:55.271,0.61329156,0.680479,0.18000153,0.2588923,0.46512267,-0.28825253,-0.49697873,0.11344437,0.48830977,0.19134967,-0.17315216,0.27355403,0.48712626,0.022966469,-0.080439046,0.6345145,0.07933584,-0.02522183,-0.062218003,6.947721e-05,700.528,702.65216,709.82117,709.2901,768.8549,782.9274,752.74677,1450.0,0.03265380859375,-0.0301513671875,1.01513671875,-1.27105712890625,-0.695343017578125,0.1495361328125,0.8116157642514842,0.7325141263142837,0.5860296116157643,0.5073247025725389,11.840373840688551,11.07096392723458,12.80289917268674,10.84241756669766,0.0,0.0,0.0,0.0,0.0,0.0,0.0,0.0,72.97275,1.0,1.0,1.0,1.0,1.0,9.64,
2025-10-24 13:24:55.778,-0.10730265,0.5858795,0.027362721,0.002389084,0.053456634,-0.33424604,-0.5933719,0.42873538,0.58496845,0.154208,-0.07890139,0.6442022,0.5034444,-0.03888151,-0.096627355,0.37923962,0.005159516,0.011925331,-0.03637054,0.096495226,716.4591,704.24524,711.41425,712.6534,769.4744,770.0055,747.7904,1450.0,0.04632568359375,-0.02362060546875,1.02294921875,-2.205657958984375,-0.52337646484375,0.336456298828125,0.8101814367117278,0.7308356579166965,0.5867925517964857,0.508179195574947,11.84470734091505,11.072794983668311,12.820080585556587,10.852579929904872,0.0,0.0,0.0,0.0,0.0,0.0,0.0,0.0,72.24515,1.0,1.0,1.0,1.0,1.0,9.64,
2025-10-24 13:24:56.289,0.16750008,-0.018762117,-0.4603517,-0.012101949,0.007905412,-0.3105131,-0.24599999,0.2520811,0.5855336,-0.40158945,-0.08022167,0.6442022,0.44164947,-0.117117204,-0.03803131,0.35455582,-0.013436947,-0.026295492,-0.13515222,0.033019427,729.6466,734.51447,743.01105,736.5501,863.3797,874.70856,834.8807,1450.0,0.03826904296875,-0.032958984375,1.02325439453125,-1.727142333984375,-0.471038818359375,-0.11962890625,0.8136299263285888,0.73501657010705,0.5911260520229835,0.5117192380134945,11.851024485611426,11.066538874186396,12.820080585556587,10.83793147843502,0.0,0.0,0.0,0.0,0.0,0.0,0.0,0.0,71.149666,1.0,1.0,1.0,1.0,1.0,9.62,
2025-10-24 13:24:56.797,0.18722942,-0.07552202,-0.3691292,-0.08310421,0.12789507,-0.26859367,-0.18753837,0.2072956,0.54642045,-0.32860672,-0.13856162,0.6482117,0.32407936,-0.15733586,0.06623928,0.35965127,-0.062284958,-0.008292726,-0.20525862,-0.074478894,708.9361,706.3694,715.30853,713.80396,750.5341,766.1112,745.4007,1450.0,0.02703857421875,-0.030029296875,1.01483154296875,-0.979461669921875,-0.216827392578125,0.800018310546875,0.8101814367117278,0.7322394678492239,0.5887456786591326,0.5093388646496435,11.828227833011468,11.041117707364757,12.780102520086784,10.793650430345943,0.0,0.0,0.0,0.0,0.0,0.0,0.0,0.0,70.33282,1.0,1.0,1.0,1.0,1.0,9.62,
2025-10-24 13:24:57.324,0.17857853,-0.12631558,-0.22894649,0.035793018,0.26140302,-0.2906878,-0.17998579,0.14173852,0.7959292,-0.23161009,-0.17439711,0.62404686,0.4144206,-0.15261893,0.06756792,0.47317237,-0.08081567,-0.05286473,-0.27105886,-0.10205217,707.697,704.8648,716.1051,707.874,777.88257,780.4492,751.4191,1450.0,0.0333251953125,-0.0386962890625,1.01776123046875,-1.009368896484375,-0.127105712890625,-0.082244873046875,0.80798416899125,0.7312934220251294,0.5896917244832273,0.5114445795484348,11.841686097799396,11.056132370121356,12.808789070881913,10.823221991750708,0.0,0.0,0.0,0.0,0.0,0.0,0.0,0.0,70.00189,1.0,1.0,1.0,1.0,1.0,9.62,
2025-10-24 13:24:57.829,0.17078707,-0.23368756,-0.09888761,0.17703359,0.50528884,-0.32902122,-0.45788407,0.3440463,0.80638236,-0.20074773,-0.4492614,0.72192085,0.5031742,-0.15359552,-0.010988724,0.54429185,-0.08475803,-0.1312534,-0.2227214,-0.07070947,701.9441,709.1131,715.9281,712.6534,772.48364,788.94586,759.2077,1450.0,0.03448486328125,-0.032958984375,1.014892578125,-1.30096435546875,-0.441131591796875,0.321502685546875,0.8036506687647522,0.7323310206709105,0.584168037574804,0.5092167942207282,11.803996852871755,11.02952101661779,12.737225281930238,10.772623798965263,0.0,0.0,0.0,0.0,0.0,0.0,0.0,0.0,70.39314,1.0,1.0,1.0,1.0,1.0,9.62,
2025-10-24 13:24:58.338,0.3682085,-0.20583154,-0.18777785,0.43842703,0.63098186,-0.38350716,-0.57081085,0.43185252,0.80698967,-0.15715075,-0.4314671,0.7920914,0.5714812,-0.13327292,-0.15700817,0.5469095,-0.09124998,-0.20839074,-0.15477395,-0.08313458,727.52246,747.34784,741.949,718.14075,813.4621,822.48975,808.15173,1450.0,0.03515625,-0.02789306640625,1.02008056640625,-1.323394775390625,0.07476806640625,0.6280517578125,0.7994087213599409,0.7291571895191092,0.5790105619531268,0.5047612235653148,11.778636721264574,11.019785899911785,12.69495839591827,10.757120854493005,0.0,0.0,0.0,0.0,0.0,0.0,0.0,0.0,70.81463,1.0,1.0,1.0,1.0,1.0,9.59,
2025-10-24 13:24:58.854,0.5837436,-0.03166295,-0.27029148,0.5901438,0.5867869,-0.3041001,-0.5071968,0.4066456,0.75583225,-0.13089596,-0.030517248,0.79814327,0.59877735,-0.09402318,-0.25228104,0.79778355,-0.051321313,-0.18040077,-0.1293859,-0.18339205,708.3165,711.9453,718.6718,713.0074,770.53656,776.9975,758.32263,1450.0,0.0340576171875,-0.03790283203125,1.016357421875,-0.994415283203125,-0.037384033203125,0.231781005859375,0.8000495911117469,0.7308661755239253,0.5815740409603509,0.5082707483966336,11.810741244069332,11.058116014591231,12.742718451231433,10.81595880123024,0.0,0.0,0.0,0.0,0.0,0.0,0.0,0.0,71.692184,1.0,1.0,1.0,1.0,1.0,9.59,
2025-10-24 13:24:59.374,0.5883269,-0.13424097,-0.46094373,0.58013475,0.39809477,-0.46049094,-0.37800935,0.27750176,0.6620664,-0.1596358,-0.024883263,0.79814327,0.6214803,-0.089595616,-0.20279185,0.8456439,-0.028052196,-0.24791992,-0.12642819,-0.23991632,710.61774,712.6534,712.2993,709.90967,800.27466,795.2298,774.78485,1450.0,0.0379638671875,-0.02880859375,1.020263671875,-1.173858642578125,-0.97198486328125,0.5084228515625,0.8008430488996972,0.7323615382781394,0.5802617838495101,0.5071415969291657,11.806651884700663,11.06214433874544,12.719769210595333,10.813914121545908,0.0,0.0,0.0,0.0,0.0,0.0,0.0,0.0,72.49306,1.0,1.0,1.0,1.0,1.0,9.58,
2025-10-24 13:24:59.878,0.4966121,-0.11959033,-0.45723614,0.41297752,0.31330243,-0.5241852,-0.32630935,0.2670412,1.0480063,-0.11264614,-0.008118902,0.828607,0.6327517,-0.015773142,-0.15855767,0.8456679,-0.028225493,-0.15770555,-0.08402697,-0.13860762,729.29254,735.57654,742.92255,738.0547,789.12286,803.90344,785.4056,1450.0,0.03668212890625,-0.0352783203125,1.0252685546875,-1.74957275390625,0.22430419921875,0.13458251953125,0.7999885558972892,0.7304694466299502,0.5762029420880719,0.5037236249195336,11.799724387859714,11.066569391793625,12.708813389600172,10.8207805831724,0.0,0.0,0.0,0.0,0.0,0.0,0.0,0.0,73.1801,1.0,1.0,1.0,1.0,1.0,9.58,
2025-10-24 13:25:00.395,0.3479067,-0.1634015,-0.4524352,0.20997134,0.32967445,-0.5435709,-0.33295396,0.25823453,1.0481868,0.0029074394,-0.05995013,0.816076,0.55350053,-0.036633454,-0.1088021,0.7229065,-0.06452493,-0.16278163,-0.07692651,-0.111291684,742.74554,735.3995,742.303,745.84326,776.732,790.893,778.1481,1450.0,0.0361328125,-0.03936767578125,1.01727294921875,-1.188812255859375,-0.10467529296875,-0.186920166015625,0.8061836301647474,0.7357795102877716,0.5827947452495053,0.5091252413990416,11.849986886965644,11.103983978256204,12.776104713539803,10.877543332618076,0.0,0.0,0.0,0.0,0.0,0.0,0.0,0.0,73.93391,1.0,1.0,1.0,1.0,1.0,9.57,
2025-10-24 13:25:00.901,0.13676918,-0.13897178,-0.48044044,0.055732667,0.22781369,-0.4038453,-0.42398453,0.24502178,1.0481868,-0.011102597,-0.166181,0.8802059,0.36788365,-0.059688814,-0.004321678,0.5781997,-0.10130386,-0.0730709,-0.07795019,-0.077576704,730.3546,719.4683,718.7603,727.2569,445.3641,447.04572,512.1864,611.49054,0.04193115234375,-0.03131103515625,1.02166748046875,-1.398162841796875,-0.994415283203125,0.22430419921875,0.8074653696683595,0.7364814152540352,0.5792852204181866,0.5059208926400114,11.832622368452425,11.083720287056243,12.738690127077223,10.842814295591635,0.0,0.0,0.0,0.0,0.0,0.0,0.0,0.0,74.513115,1.0,1.0,1.0,1.0,1.0,9.57,
2025-10-24 13:25:01.409,0.09084922,-0.1886071,-0.5205477,0.08854998,0.116256654,-0.35501075,-0.53055394,0.20645443,1.0029866,-0.04128944,-0.25288978,0.7819432,0.27027133,-0.06831253,-0.0017154127,0.5506057,-0.075588815,-0.14208822,-0.19903009,-0.09622612,707.874,709.90967,723.3626,715.39703,786.20215,776.2009,751.8617,1450.0,0.03985595703125,-0.04034423828125,1.02532958984375,-1.86920166015625,-0.276641845703125,-0.216827392578125,0.8062446653792051,0.7329718904227165,0.5755010371218081,0.5014348043773693,11.820049114274134,11.061198292921343,12.719982833845934,10.810679255179648,0.0,0.0,0.0,0.0,0.0,0.0,0.0,0.0,75.355385,1.0,1.0,1.0,1.0,1.0,9.55,
2025-10-24 13:25:01.915,0.17869951,-0.34529302,-0.47471866,0.18542634,0.054536063,-0.36921832,-0.6055285,0.3286536,0.3301729,-0.32099822,-0.33143842,0.7672135,0.2779385,-0.020231912,-0.011946365,0.4902115,-0.07920859,-0.19716543,-0.1741991,-0.0894291,719.7339,718.9373,717.69824,723.5397,779.12164,778.0596,767.52734,1450.0,0.04119873046875,-0.0361328125,1.02587890625,-1.48040771484375,-0.88226318359375,0.0299072265625,0.810791788856305,0.7366950385046372,0.5805974775290275,0.5051884700665188,11.852855542045155,11.068614071477958,12.769177216698854,10.822550604391674,0.0,0.0,0.0,0.0,0.0,0.0,0.0,0.0,76.20805,1.0,1.0,1.0,1.0,1.0,9.55,
2025-10-24 13:25:02.424,0.25313833,-0.59427214,-0.38935146,0.18723473,0.17361549,-0.48779574,-0.51149994,0.35822102,0.34541517,-0.1891227,-0.058041472,0.7405454,0.3063261,0.0083701145,-0.13584135,0.43147945,-0.088516444,-0.26208395,-0.23511726,-0.13607123,721.504,716.0166,717.3442,723.5397,801.5138,807.08966,789.91943,1450.0,0.045654296875,-0.03582763671875,1.02435302734375,-1.727142333984375,-0.5084228515625,0.112152099609375,0.8073127816322152,0.7324225734925971,0.574463438476027,0.4994816775147224,11.812755406146437,11.018748301266005,12.70139761104356,10.742258779772548,0.0,0.0,0.0,0.0,0.0,0.0,0.0,0.0,77.024185,1.0,1.0,1.0,1.0,1.0,9.54,
2025-10-24 13:25:02.929,0.666862,-0.43102765,-0.2203884,0.4558445,0.5218804,-0.46548998,-0.3434042,0.48542258,0.39900652,-0.097848944,-0.062571496,0.69540256,0.41723126,-0.08253015,-0.08605672,0.5315626,-0.18502001,-0.2520818,-0.21591489,-0.1779963,720.88446,713.71545,721.14996,730.9742,785.1401,786.8217,769.74,1450.0,0.04766845703125,-0.03253173828125,1.0255126953125,-1.39068603515625,-0.695343017578125,-0.179443359375,0.8042610209093293,0.727509238728751,0.5716253010037432,0.4962162935412345,11.80442409937296,11.01139355792385,12.69099110697852,10.725413060582218,0.0,0.0,0.0,0.0,0.0,0.0,0.0,0.0,77.64691,1.0,1.0,1.0,1.0,1.0,9.54,
2025-10-24 13:25:03.433,0.8882465,-0.2003978,-0.037186693,0.6356952,0.6236497,-0.37944403,-0.29739615,0.43557882,0.64443177,-0.076828234,-0.07521173,0.69540256,0.46413943,-0.20206147,-0.07997733,0.56924057,-0.1465013,-0.23322234,-0.28317493,-0.20835735,711.41425,715.5741,719.6454,714.689,785.67114,785.93665,778.3251,1443.8046,0.03582763671875,-0.0382080078125,1.01715087890625,-1.42059326171875,-0.485992431640625,0.55328369140625,0.8091438380659466,0.7309577283456119,0.5787359034880671,0.5022282621653196,11.840892640011443,11.039561309396085,12.740368595474813,10.764231456977326,0.0,0.0,0.0,0.0,0.0,0.0,0.0,0.0,77.75552,1.0,1.0,1.0,1.0,1.0,9.53,
2025-10-24 13:25:03.937,0.9621064,-0.035414316,0.033042196,0.7252705,0.5813551,-0.20596059,-0.44315925,0.44186366,0.7372068,-0.11119197,-0.22788784,0.7264172,0.5586585,-0.24465582,-0.06517466,0.6406826,-0.02781286,-0.26467308,-0.2636202,-0.076611705,699.0234,715.39703,716.1051,705.5729,784.9631,797.885,769.74,1450.0,0.03533935546875,-0.0435791015625,1.0245361328125,-1.2261962890625,-0.829925537109375,0.725250244140625,0.8077400281334192,0.72833321412393,0.5755010371218081,0.499329089478578,11.822398970030756,11.031840354767183,12.704388336551988,10.741587392413514,0.0,0.0,0.0,0.0,0.0,0.0,0.0,0.0,77.47891,1.0,1.0,1.0,1.0,1.0,9.53,
2025-10-24 13:25:04.448,0.8666303,-0.08705661,-0.03842513,0.68904555,0.26060623,-0.20090447,-0.74374163,0.29919106,0.76444846,-0.12095109,-0.46945754,0.91164917,0.64826125,-0.20041896,-0.1611078,0.61836576,-0.0023410134,-0.2984096,-0.34081015,-0.12791406,728.05347,722.03503,709.99817,715.043,783.547,789.47687,773.4572,1450.0,0.0384521484375,-0.03802490234375,1.02093505859375,-1.21124267578125,0.10467529296875,-0.411224365234375,0.8041694680876428,0.7251899005793577,0.5736394630808478,0.4983830436544835,11.818736857163293,11.04642777102258,12.701977445580908,10.76063037932432,0.0,0.0,0.0,0.0,0.0,0.0,0.0,0.0,76.709885,1.0,1.0,1.0,1.0,1.0,9.52,
2025-10-24 13:25:04.949,0.65835136,-0.15734248,-0.2999158,0.61160517,-0.005748214,-0.22250962,-0.8591861,0.22272234,0.8779567,-0.18810153,-0.28599226,0.9957374,0.69182974,-0.02373752,-0.115222774,0.6347551,-0.014538017,-0.12003841,-0.3091784,-0.12603773,726.9029,725.30975,721.06146,723.7167,582.19495,588.4789,630.2539,818.06445,0.03790283203125,-0.040283203125,1.0177001953125,-1.7047119140625,-0.994415283203125,0.2093505859375,0.8070381231671554,0.7271125098347757,0.5785833154519229,0.5024113678086928,11.842784731659634,11.073130677347828,12.731396418949526,10.79755668407124,0.0,0.0,0.0,0.0,0.0,0.0,0.0,0.0,76.190765,1.0,1.0,1.0,1.0,1.0,9.52,
2025-10-24 13:25:05.450,0.63217145,-0.3543618,-0.57336617,0.7203164,0.21340299,-0.42921236,-0.7565679,0.15430675,0.9702906,-0.03541266,-0.20517637,0.98307574,0.7787808,0.042099535,-0.06332308,0.68158317,-0.13916671,-0.11233717,-0.31914225,-0.24996749,735.2225,736.01904,732.6558,732.6558,809.3908,815.7633,781.77686,1450.0,0.03900146484375,-0.03692626953125,1.01910400390625,-1.36077880859375,-1.099090576171875,0.11962890625,0.8025825525117422,0.7236029850034571,0.5736699806880767,0.4990544310135183,11.814983191474145,11.059916553417734,12.681805307202632,10.773569844789357,0.0,0.0,0.0,0.0,0.0,0.0,0.0,0.0,75.944214,1.0,1.0,1.0,1.0,1.0,9.51,
2025-10-24 13:25:05.961,0.57967275,-0.31978315,0.0009186037,0.7264399,0.34636337,-0.3167279,-0.44211513,0.31361482,0.9680745,-0.018802878,-0.18689294,0.91604316,0.7149376,0.01284073,-0.012329285,0.73906255,-0.15312901,-0.09168236,-0.1640522,-0.15598993,719.9994,719.7339,716.9017,721.5925,797.44244,797.17694,779.47565,1424.1561,0.04815673828125,-0.0294189453125,1.02691650390625,-1.637420654296875,-1.55517578125,0.216827392578125,0.7990119924659658,0.7208564003528598,0.5727544524712109,0.4989323605846029,11.817882364160884,11.073496888634576,12.696667381923088,10.798533247502563,0.0,0.0,0.0,0.0,0.0,0.0,0.0,0.0,76.14611,1.0,1.0,1.0,1.0,1.0,9.51,
2025-10-24 13:25:06.470,0.5773342,-0.2523484,0.07983199,0.6900849,0.41684335,-0.32105795,-0.36064127,0.381707,0.9137863,-0.042132404,-0.19377765,0.6866374,0.6612592,-0.106808536,0.010441945,0.7355486,-0.20535469,-0.16215032,-0.13649224,-0.16665012,723.3626,730.2661,716.54767,725.48676,645.74255,640.6092,670.2588,937.1055,0.0438232421875,-0.03765869140625,1.0174560546875,-1.697235107421875,-0.411224365234375,0.04486083984375,0.7975776649262094,0.7204596714588847,0.5732122165796438,0.4996342655508666,11.813396275898242,11.070750303983978,12.684094127744796,10.795542521994134,0.0,0.0,0.0,0.0,0.0,0.0,0.0,0.0,76.316284,1.0,1.0,1.0,1.0,1.0,9.5,
2025-10-24 13:25:06.976,0.48248336,0.28412932,0.3398202,0.7685787,0.43524793,-0.002500879,0.06811893,0.41649845,0.63842356,-0.07503425,-0.19015503,0.774952,0.5017025,-0.12699385,0.03796972,0.67579526,-0.24532156,-0.11184253,0.0076876166,-0.1316346,734.3374,723.8937,725.7523,732.12476,790.8045,804.25745,779.47565,1415.748,0.04217529296875,-0.037841796875,1.01995849609375,-1.293487548828125,-0.46356201171875,0.5682373046875,0.7963569606370551,0.7191168967408149,0.5710454664663949,0.4973454450087022,11.81690580072956,11.06482988818158,12.683575328421906,10.784006866461626,0.0,0.0,0.0,0.0,0.0,0.0,0.0,0.0,76.46309,1.0,1.0,1.0,1.0,1.0,9.48,
2025-10-24 13:25:07.482,0.505803,0.48213056,0.3107475,0.8180434,0.42841333,0.03600483,0.16630246,0.36160767,0.4494442,-0.007059716,-0.2518171,0.6683822,0.5317139,-0.08653943,0.06653004,0.6163612,-0.28922504,-0.19652766,0.019330893,-0.15195622,724.77875,723.9822,732.12476,727.52246,640.1666,648.7518,624.94354,1421.855,0.05401611328125,-0.04510498046875,1.01416015625,-1.039276123046875,-1.547698974609375,0.8074951171875,0.7980049114274134,0.721466752497437,0.5763860477314451,0.5030827551677276,11.845348210666858,11.086100660420094,12.732311947166393,10.820902653601316,0.0,0.0,0.0,0.0,0.0,0.0,0.0,0.0,76.38884,1.0,1.0,1.0,1.0,1.0,9.48,
2025-10-24 13:25:07.992,0.63407165,0.4640485,0.38082495,0.99895793,0.35224015,0.043278746,0.20159541,0.26687568,0.3829156,-0.007059716,-0.11779927,0.63063234,0.4872912,-0.052669678,-0.0020077133,0.53133947,-0.18817152,-0.23898311,0.04049896,-0.10649485,725.6638,725.13275,731.59375,733.2753,689.9957,694.6866,722.9201,1070.8386,0.05010986328125,-0.0380859375,1.0208740234375,-1.30096435546875,-0.201873779296875,0.530853271484375,0.7960823021719954,0.7209784707817752,0.5723577235772358,0.5003056529099015,11.819286174093412,11.056132370121356,12.684612927067688,10.771494647497796,0.0,0.0,0.0,0.0,0.0,0.0,0.0,0.0,76.28786,1.0,1.0,1.0,1.0,1.0,9.48,
2025-10-24 13:25:08.500,0.9738965,0.6261885,0.7270859,0.32989228,0.86864805,0.37014005,0.49519444,-0.066710524,0.8621738,0.60106045,0.54279596,0.28334194,0.5233495,-0.09796489,-0.096933484,0.57195467,-0.022617083,-0.39087147,-0.27118132,0.068373226,723.1856,722.7431,724.2477,725.9293,808.5058,801.9563,787.0872,1407.0745,0.0479736328125,-0.04229736328125,1.01361083984375,-1.48040771484375,0.31402587890625,0.3289794921875,0.7951667739551296,0.7197577664926209,0.5689702691748325,0.4980778675821948,11.798808859642849,11.028361347543097,12.647472999070168,10.723551486541258,0.0,0.0,0.0,0.0,0.0,0.0,0.0,0.0,76.21611,1.0,1.0,1.0,1.0,1.0,9.47,
2025-10-24 13:25:09.010,0.96172774,0.94239587,0.9692546,0.2914722,0.8801757,0.5979777,0.5835909,-0.0724201,0.87551975,0.6104769,0.5732779,0.29580167,0.41809103,-0.17275502,-0.1406618,0.48667094,-0.110079035,-0.39569205,-0.28332546,0.018769423,719.2028,722.30054,729.02704,719.5569,802.8414,804.9655,797.885,1450.0,0.0604248046875,-0.0267333984375,1.02386474609375,-1.55517578125,-1.9140625,1.398162841796875,0.7970283479960899,0.7223822807143028,0.5725713468278377,0.5021367093436331,11.818919962806666,11.04426102090933,12.68534534964118,10.7523601077653,0.0,0.0,0.0,0.0,0.0,0.0,0.0,0.0,76.43723,1.0,1.0,1.0,1.0,1.0,9.46,
2025-10-24 13:25:09.522,0.79607135,0.9432465,0.93214625,0.28667426,0.723555,0.58976656,0.5584111,-0.09198277,0.87551975,0.61111647,0.5732779,0.35354102,0.38814452,-0.24842441,-0.2176085,0.43249756,-0.07349147,-0.42772537,-0.34685785,-0.017117525,726.7259,726.1948,721.85803,724.95575,799.56665,819.5691,803.3724,1400.7904,0.0574951171875,-0.03662109375,1.0115966796875,-1.54022216796875,-0.605621337890625,0.3887939453125,0.7962348902081396,0.7248847245070691,0.5704045967145889,0.5024724030231504,11.79450587702358,11.02125074505877,12.634991297713563,10.706248003242496,0.0,0.0,0.0,0.0,0.0,0.0,0.0,0.0,76.78253,1.0,1.0,1.0,1.0,1.0,9.46,
2025-10-24 13:25:10.023,0.63631606,0.87484944,0.84660745,0.23415543,0.6090066,0.4499404,0.40991938,-0.14728938,0.870746,0.61111647,0.57049847,0.39236796,0.3075633,-0.26026353,-0.25672466,0.35307676,-0.05623008,-0.3609246,-0.3184329,-0.13277586,731.2397,729.11554,725.5753,732.03625,810.1874,806.3816,797.9735,1450.0,0.057373046875,-0.03863525390625,1.0213623046875,-0.949554443359375,-0.500946044921875,1.278533935546875,0.7945869394177812,0.7241217843263477,0.56475883937725,0.4991154662279761,11.771556636387478,11.01029492406361,12.597485158429295,10.683726009107598,0.0,0.0,0.0,0.0,0.0,0.0,0.0,0.0,77.21848,1.0,1.0,1.0,1.0,1.0,9.45,
2025-10-24 13:25:10.537,0.011432893,-0.18409261,-0.09854069,0.21003215,0.006550956,-0.5694401,-0.21208051,-0.38645673,0.5008599,-0.1056081,0.07788909,0.1876806,0.25814876,-0.23805235,-0.2958226,0.26225024,-0.027952192,-0.29153788,-0.28765938,-0.22051378,714.6005,724.69025,726.5489,725.7523,812.7541,817.2679,796.73444,1396.8076,0.0574951171875,-0.03692626953125,1.0198974609375,-1.338348388671875,-0.2093505859375,-0.500946044921875,0.7967231719238014,0.7275397563359798,0.5694585508904942,0.5036320720978471,11.81263333571752,11.050059366282811,12.660015735641228,10.742350332594237,0.0,0.0,0.0,0.0,0.0,0.0,0.0,0.0,77.65456,1.0,1.0,1.0,1.0,1.0,9.45,
2025-10-24 13:25:11.047,0.1376319,-0.24281637,-0.17044356,0.17205898,0.039585307,-0.44778103,-0.1441536,-0.3528551,0.3988112,-0.26897484,0.052384626,0.20181613,0.23592916,-0.24691565,-0.35492146,0.25670096,0.0025193985,-0.2611498,-0.3607936,-0.31337544,719.9109,724.0707,727.69946,718.05225,803.54944,811.16095,777.61707,1450.0,0.06536865234375,-0.037841796875,1.01654052734375,-1.95892333984375,-1.547698974609375,0.1495361328125,0.7963874782442839,0.7280280380516415,0.5657354028085735,0.5016789452352002,11.791576186729609,11.043742221586438,12.62357771260997,10.72696945855089,0.0,0.0,0.0,0.0,0.0,0.0,0.0,0.0,78.0533,1.0,1.0,1.0,1.0,1.0,9.42,
2025-10-24 13:25:11.557,0.20829202,-0.1892045,-0.12589873,0.17952505,0.0754331,-0.34548804,-0.1184763,-0.1796761,0.48362562,-0.20136158,0.052384626,0.26947066,0.2621479,-0.21342334,-0.38672554,0.23747954,-0.04314219,-0.30361184,-0.4415864,-0.2568149,735.84204,731.2397,733.5409,733.2753,812.1345,817.79895,809.5679,1450.0,0.0755615234375,-0.045166015625,1.0247802734375,-1.8243408203125,-0.2691650390625,-0.3887939453125,0.7937019288081444,0.7259528407600792,0.5618596666905086,0.4986577021195432,11.779857425553727,11.048380897885226,12.61130963450397,10.734110578642444,0.0,0.0,0.0,0.0,0.0,0.0,0.0,0.0,77.915085,1.0,1.0,1.0,1.0,1.0,9.42,
2025-10-24 13:25:12.076,0.14208458,-0.23890899,-0.15975566,0.17941467,0.04834945,-0.21336521,-0.3786567,-0.14665815,0.39668986,-0.112291776,-0.07405119,0.26850924,0.4053634,-0.20982589,-0.44382122,0.41337368,-0.05784173,-0.382229,-0.48665458,-0.23291606,733.8064,729.20404,730.6202,738.76276,825.9415,834.7037,809.7449,1393.6215,0.07696533203125,-0.04638671875,1.02349853515625,-1.734619140625,-0.76263427734375,0.418701171875,0.7979133586057268,0.7302253057721193,0.5664373077748373,0.503876212955678,11.808543976348854,11.073527406241803,12.650738383043654,10.770365496030326,0.0,0.0,0.0,0.0,0.0,0.0,0.0,0.0,77.24104,1.0,1.0,1.0,1.0,1.0,9.42,
2025-10-24 13:25:12.586,0.11469748,-0.35731843,-0.20286448,0.17913134,0.16057998,-0.2882077,-0.47164518,-0.12137988,0.39463246,-0.03111597,-0.2847827,0.26874125,0.44164842,-0.18334955,-0.39823154,0.45528007,-0.11592261,-0.39979544,-0.49258244,-0.23233433,727.61096,729.02704,729.29254,730.3546,816.8254,814.25867,801.42523,1391.6743,0.0728759765625,-0.047607421875,1.015625,-1.323394775390625,-0.94207763671875,0.590667724609375,0.7970588656033188,0.7286078725889898,0.5635686526953246,0.5014042867701405,11.79130152826455,11.059031542808096,12.62226545549913,10.74674486803519,0.0,0.0,0.0,0.0,0.0,0.0,0.0,0.0,76.19701,1.0,1.0,1.0,1.0,1.0,9.42,
2025-10-24 13:25:13.099,0.046370123,-0.40611696,-0.22729404,0.19273049,0.14066146,-0.3463972,-0.4143246,-0.026980702,0.36960664,-0.020532984,-0.2795865,0.11405353,0.5110086,-0.23429964,-0.33635238,0.5733855,-0.16934107,-0.35040462,-0.41973042,-0.27895978,638.0425,722.5661,751.5077,647.7782,838.0669,846.82904,819.9231,1393.002,0.0736083984375,-0.04974365234375,1.0135498046875,-1.128997802734375,-0.276641845703125,-0.299072265625,0.7997444150394584,0.7294013303769401,0.5688787163531459,0.5065312447845887,11.829814748587369,11.091136065612856,12.68485706792552,10.802164842762798,0.0,0.0,0.0,0.0,0.0,0.0,0.0,0.0,75.04619,1.0,1.0,1.0,1.0,1.0,9.41,
2025-10-24 13:25:13.605,-0.044661034,-0.1391042,0.27420086,0.09758102,0.1815785,-0.3040743,-0.26109955,0.097383596,0.16203569,-0.08929313,-0.121775284,-0.114164405,0.47411853,-0.29657203,-0.29196236,0.55015826,-0.1698929,-0.28201318,-0.3861933,-0.32082716,744.6927,728.23047,730.3546,741.949,832.40247,833.19904,819.6576,1450.0,0.08013916015625,-0.04400634765625,1.01556396484375,-1.218719482421875,-1.248626708984375,0.276641845703125,0.7979438762129557,0.7260749111889946,0.5638127935531555,0.501923086093031,11.79795436664044,11.056712204658703,12.63108504398827,10.7478129842882,0.0,0.0,0.0,0.0,0.0,0.0,0.0,0.0,74.0996,1.0,1.0,1.0,1.0,1.0,9.41,
2025-10-24 13:25:14.119,-0.06403854,0.016749699,0.5797074,0.20212007,-0.019816061,-0.14868273,-0.13370635,0.2511711,0.10169972,-0.25298384,-0.08775385,-0.20573041,0.5575579,-0.34227732,-0.26812455,0.66189706,-0.2952412,-0.206883,-0.32881895,-0.3085714,732.39026,730.9742,729.38104,737.1696,842.66925,849.0417,838.4209,1392.7363,0.08575439453125,-0.0343017578125,1.0244140625,-1.502838134765625,-1.375732421875,0.82244873046875,0.7940376224876619,0.7190558615263571,0.5614019025820757,0.4990544310135183,11.794627947452495,11.057292039196051,12.640331878978614,10.752146484514698,0.0,0.0,0.0,0.0,0.0,0.0,0.0,0.0,73.420364,1.0,1.0,1.0,1.0,1.0,9.4,
2025-10-24 13:25:14.632,-0.06403854,0.066383846,0.5854019,-0.0041444195,-0.019816061,-0.09095845,-0.15669379,0.2988684,0.10169972,-0.21483427,-0.05290092,0.679435,0.5575579,-0.32727027,-0.24978293,0.5189151,-0.2952412,-0.15344417,-0.3335037,0.0630299,744.5157,736.10754,733.2753,733.7179,809.0368,820.80817,808.32874,1450.0,0.08221435546875,-0.05047607421875,1.01910400390625,-0.874786376953125,0.04486083984375,0.4486083984375,0.7978828409984979,0.7200324249576806,0.5652471210929118,0.5021977445580907,11.814311804115109,11.065012993824952,12.667065302911094,10.765085949979737,0.0,0.0,0.0,0.0,0.0,0.0,0.0,0.0,72.75204,1.0,1.0,1.0,1.0,1.0,9.4,
2025-10-24 13:25:15.139,0.57409626,-0.07333856,0.3768987,-0.09601246,0.5491488,-0.10083344,-0.262779,0.34176138,0.5878924,-0.15943179,-0.12797898,0.8768281,0.16093667,-0.23944387,-0.23928402,0.46866277,0.09831294,-0.16653854,-0.38617042,0.06818812,724.77875,716.1936,725.39825,721.681,786.5562,792.57465,760.53534,1450.0,0.06939697265625,-0.03863525390625,1.013916015625,-1.293487548828125,-0.560760498046875,0.471038818359375,0.7984016403213885,0.7191779319552727,0.564789356984479,0.5013432515556827,11.81480008583077,11.056223922943042,12.664166130224352,10.747477290608684,0.0,0.0,0.0,0.0,0.0,0.0,0.0,0.0,71.85506,1.0,1.0,1.0,1.0,1.0,9.39,
2025-10-24 13:25:15.649,0.6397612,-0.25431946,-0.18770893,0.05782744,0.5799652,-0.1514342,-0.44108403,0.41691434,0.73297566,-0.13376373,-0.25150654,0.9749369,0.2708349,-0.26545107,-0.2510605,0.49887192,0.040039044,-0.17875937,-0.48371568,-0.017038478,714.15796,718.22925,719.2913,730.5317,756.0215,769.4744,741.0639,1450.0,0.07354736328125,-0.038818359375,1.0179443359375,-1.57012939453125,-1.0467529296875,0.665435791015625,0.8002021791478912,0.7185675798106954,0.5675664592423051,0.503204825596643,11.830119924659655,11.071971008273133,12.699871730682116,10.778544214767662,0.0,0.0,0.0,0.0,0.0,0.0,0.0,0.0,70.95202,1.0,1.0,1.0,1.0,1.0,9.39,
2025-10-24 13:25:16.157,0.5765875,-0.27581504,-0.27228424,0.2925519,0.4456216,-0.23778804,-0.49085924,0.5633128,0.7701701,-0.18700661,-0.21832351,1.0578212,0.4697851,-0.28430927,-0.2331049,0.5732956,-0.063946955,-0.25710523,-0.45861536,-0.11743496,717.3442,714.689,723.3626,719.6454,385.79932,384.20618,421.37888,938.8757,0.0733642578125,-0.02960205078125,1.015869140625,-1.36077880859375,-0.291595458984375,0.25421142578125,0.8027961757623441,0.7218329637841833,0.5682378466013399,0.5036015544906183,11.82365019192714,11.06351763107074,12.678295782371311,10.76117969625444,0.0,0.0,0.0,0.0,0.0,0.0,0.0,0.0,70.29733,1.0,1.0,1.0,1.0,1.0,9.38,
2025-10-24 13:25:16.661,0.4971508,-0.29846194,-0.341998,0.38304496,0.36838102,-0.33687305,-0.61718976,0.6213421,0.7835926,-0.21740428,-0.28306463,1.0021147,0.53345174,-0.2949909,-0.17330305,0.558415,-0.13228434,-0.2958139,-0.37240586,-0.1477391,722.7431,735.3995,731.3282,728.23047,865.6809,858.42334,855.8567,1450.0,0.0714111328125,-0.04315185546875,1.0162353515625,-1.712188720703125,-0.059814453125,0.55328369140625,0.8014839186515033,0.7206122594950289,0.5659490260591755,0.5010991106978518,11.80036525761152,11.044199985694872,12.640667572658131,10.733774884962926,0.0,0.0,0.0,0.0,0.0,0.0,0.0,0.0,70.08637,1.0,1.0,1.0,1.0,1.0,9.38,
2025-10-24 13:25:17.173,0.20621352,-0.32979858,-0.45452836,0.34504974,0.11904429,-0.379428,-0.691411,0.56257427,0.8447902,0.01563444,-0.28356677,1.0071832,0.497116,-0.15571149,-0.14692785,0.5091004,-0.15997642,-0.41746202,-0.35292152,-0.14027771,729.6466,736.10754,733.8064,731.68225,840.27954,841.7842,825.05646,1410.2606,0.07806396484375,-0.03692626953125,1.0096435546875,-0.994415283203125,-0.560760498046875,-0.127105712890625,0.8046882674105333,0.7237555730396014,0.5715642657892854,0.5067753856424195,11.823283980640394,11.068797177121333,12.682324106525522,10.77457692582791,0.0,0.0,0.0,0.0,0.0,0.0,0.0,0.0,70.70227,1.0,1.0,1.0,1.0,1.0,9.36,
2025-10-24 13:25:17.675,0.4492302,-0.19292215,-0.4007523,0.516112,0.15446708,-0.3500696,-0.7401908,0.3673492,0.8447902,0.02620831,-0.33367816,0.8500873,0.36499408,-0.09379451,-0.21194811,0.35700765,-0.12058487,-0.40529165,-0.39523673,-0.15249605,716.2821,713.80396,720.88446,719.2913,739.7363,755.4904,723.0971,1434.4229,0.0823974609375,-0.037109375,1.01690673828125,-1.55517578125,-0.16448974609375,0.755157470703125,0.8020027179743938,0.7241523019335765,0.5656133323796582,0.5029606847388122,11.781169682664569,11.037089383210548,12.61127911689674,10.726328588799085,0.0,0.0,0.0,0.0,0.0,0.0,0.0,0.0,71.504234,1.0,1.0,1.0,1.0,1.0,9.36,
2025-10-24 13:25:18.188,0.45286945,-0.08144487,-0.04405261,0.5356208,-0.007798127,-0.39476073,-0.8387388,0.12347557,0.7858285,0.0558285,-0.29176483,0.85163105,0.32989693,-0.120457694,-0.3145175,0.37012568,-0.10526553,-0.39069656,-0.42474115,-0.26274392,735.0455,738.4972,732.39026,734.86847,846.74054,844.3508,823.6404,1420.3503,0.08489990234375,-0.04217529296875,1.020751953125,-1.727142333984375,-0.37384033203125,-0.246734619140625,0.7986152635719905,0.7207343299239444,0.5613103497603891,0.4981999380111103,11.763164294399544,11.02790358343466,12.588665569940156,10.7143962043726,0.0,0.0,0.0,0.0,0.0,0.0,0.0,0.0,72.34543,1.0,1.0,1.0,1.0,1.0,9.35,
2025-10-24 13:25:18.707,0.46132612,-0.08617026,0.051709484,0.5541853,0.062246688,-0.37835845,-0.7653716,0.19603373,0.66874504,0.08636369,-0.3025323,0.6122517,0.46857244,-0.25871995,-0.3002772,0.52355456,-0.10880985,-0.34458902,-0.32266304,-0.17283563,731.68225,732.9213,738.2317,734.69147,877.1867,869.30963,852.8475,1450.0,0.0782470703125,-0.0372314453125,1.0152587890625,-1.55517578125,-0.657958984375,0.456085205078125,0.8013618482225878,0.7253119710082732,0.5642400400543595,0.5016179100207424,11.790843764156117,11.048960732422572,12.62870467062442,10.749094723791814,0.0,0.0,0.0,0.0,0.0,0.0,0.0,0.0,73.10622,1.0,1.0,1.0,1.0,1.0,9.35,
2025-10-24 13:25:19.220,0.008184757,-0.20816539,0.12030239,0.2911094,0.14487262,-0.31334072,-0.6477063,0.37648994,0.53327686,-0.033826385,-0.28585002,0.42423517,0.5817581,-0.3451044,-0.27778995,0.56299716,-0.19947131,-0.34083784,-0.30865008,-0.18040094,728.23047,739.7363,739.29376,724.60175,827.8002,832.668,819.215,1450.0,0.07415771484375,-0.04510498046875,1.0118408203125,-1.084136962890625,-0.9271240234375,0.037384033203125,0.801117707364757,0.7251899005793577,0.5621343251555683,0.4981694204038814,11.776683594401929,11.033640893593686,12.602032281906396,10.721964570965358,0.0,0.0,0.0,0.0,0.0,0.0,0.0,0.0,73.73791,1.0,1.0,1.0,1.0,1.0,9.34,
2025-10-24 13:25:19.727,-0.025206378,-0.22029488,0.10188663,0.26599425,0.25295386,-0.28993177,-0.44179848,0.38927424,0.5418908,-0.048739687,-0.33443767,0.72414094,0.6004729,-0.2894495,-0.23285057,0.55631304,-0.21327043,-0.3641476,-0.31452772,-0.15868552,720.2649,733.45233,735.66504,722.5661,860.90155,874.1775,859.2199,1450.0,0.08172607421875,-0.03851318359375,1.02001953125,-1.831817626953125,-0.19439697265625,-0.49346923828125,0.7987068163936771,0.7236640202179148,0.5593572228977421,0.4965214696135231,11.774760985146507,11.034159692916576,12.606670958205184,10.72620651837017,0.0,0.0,0.0,0.0,0.0,0.0,0.0,0.0,74.58,1.0,1.0,1.0,1.0,1.0,9.34,
2025-10-24 13:25:20.240,0.021151453,0.032944802,0.05648605,0.29491618,0.14928672,-0.35547608,-0.3015246,0.3331335,0.53887635,-0.22741057,0.01114667,0.78889996,0.5376673,-0.17580184,-0.2577351,0.43774688,-0.27723175,-0.41336888,-0.3787366,-0.20701344,727.87646,718.6718,720.2649,721.85803,294.54922,292.15955,351.1048,658.0449,0.07940673828125,-0.041259765625,1.02545166015625,-1.33087158203125,-0.500946044921875,0.246734619140625,0.8031929046563193,0.7291266719118804,0.5633550294447226,0.500000476837613,11.803447535941634,11.04822830984908,12.641766206518373,10.743265860811102,0.0,0.0,0.0,0.0,0.0,0.0,0.0,0.0,75.15258,1.0,1.0,1.0,1.0,1.0,9.32,
2025-10-24 13:25:20.756,0.091562666,0.07360392,0.012871799,0.2558975,0.079582855,-0.3802905,-0.35402948,0.1823077,0.39541775,-0.31242043,-0.03240151,0.7405763,0.4422416,-0.039033603,-0.19798577,0.53043026,-0.1789413,-0.43122336,-0.4384263,-0.16395633,740.44434,736.28455,738.0547,745.57776,872.49585,876.7442,858.9544,1450.0,0.08099365234375,-0.0362548828125,1.02008056640625,-1.383209228515625,-0.4486083984375,0.59814453125,0.8031623870490905,0.7293708127697113,0.5592961876832845,0.4957585294328016,11.784282478601911,11.022929213456358,12.603405574231695,10.69651288653649,0.0,0.0,0.0,0.0,0.0,0.0,0.0,0.0,75.409424,1.0,1.0,1.0,1.0,1.0,9.32,
2025-10-24 13:25:21.261,-0.0009339536,-0.053305697,-0.13327427,0.14863367,-0.017437343,-0.40000498,-0.43251017,0.1867073,0.33922425,-0.3529673,-0.028676204,0.6718599,0.42824593,-0.047097426,-0.21460198,0.58441335,-0.18798949,-0.47555387,-0.47283807,-0.17692566,725.8408,732.5673,743.18805,732.30176,853.113,857.62683,837.2703,1450.0,0.08148193359375,-0.0418701171875,1.01824951171875,-1.4056396484375,-0.082244873046875,-0.829925537109375,0.800476837612951,0.72619698161791,0.5545049233483537,0.492035381350881,11.776714112009156,11.017069832868415,12.597759816894357,10.688639343871444,0.0,0.0,0.0,0.0,0.0,0.0,0.0,0.0,75.58283,1.0,1.0,1.0,1.0,1.0,9.31,
2025-10-24 13:25:21.774,-0.024304302,-0.3127969,-0.3336914,0.073541895,-0.025294615,-0.4874257,-0.45124102,0.089756235,0.5623271,-0.31798986,-0.20447904,0.5096495,0.471764,-0.08823493,-0.19891676,0.5893115,-0.2505946,-0.4825089,-0.544941,-0.28729975,735.57654,740.17883,739.8248,747.5249,878.51434,885.2408,864.4418,1450.0,0.0804443359375,-0.041259765625,1.01715087890625,-1.428070068359375,-0.9869384765625,-0.0299072265625,0.8043830913382448,0.7296759888419999,0.5598455046134039,0.4954838709677419,11.798656271606704,11.031077414586465,12.625286698614786,10.70743818992442,0.0,0.0,0.0,0.0,0.0,0.0,0.0,0.0,75.71513,1.0,1.0,1.0,1.0,1.0,9.31,
2025-10-24 13:25:22.285,0.5649917,-0.23339747,-0.53489274,0.64607465,0.013832042,-0.59405446,-0.37891495,0.090147585,0.56286806,-0.3735614,-0.12245174,0.59859586,0.50522316,-0.17917144,-0.274761,0.55119354,-0.4174586,-0.5270165,-0.515084,-0.2823223,733.1868,733.36383,742.303,741.5065,816.7369,826.29553,821.3392,1450.0,0.07537841796875,-0.03509521484375,1.013427734375,-1.03179931640625,-0.142059326171875,0.91217041015625,0.8017890947237918,0.7271430274420047,0.5547185465989557,0.4911198531340152,11.775310302076628,11.014628424290107,12.581951696349808,10.673746751543762,0.0,0.0,0.0,0.0,0.0,0.0,0.0,0.0,75.79969,1.0,1.0,1.0,1.0,1.0,9.29,
2025-10-24 13:25:22.794,0.6093025,-0.16503456,-0.46491155,0.712498,0.019571891,-0.5591567,-0.29604653,0.13247831,0.5589531,-0.41501066,-0.11356966,0.58150923,0.5252241,-0.20830052,-0.18263674,0.567134,-0.4165553,-0.47410575,-0.34172454,-0.19943397,736.7271,741.5065,740.6214,731.2397,872.9384,864.70734,846.298,1450.0,0.07659912109375,-0.04718017578125,1.0120849609375,-1.039276123046875,-0.680389404296875,-0.052337646484375,0.8060615597358319,0.7295539184130844,0.5606694800085831,0.4961552583267768,11.81986600863076,11.056925827909303,12.652294781012326,10.74140428677014,0.0,0.0,0.0,0.0,0.0,0.0,0.0,0.0,75.6772,1.0,1.0,1.0,1.0,1.0,9.29,
2025-10-24 13:25:23.307,0.58971876,-0.05100901,-0.1836766,0.71788335,-0.008622784,-0.482431,-0.2543521,0.21581636,0.5347948,-0.49678868,-0.110070035,0.5599259,0.50590163,-0.25636092,-0.22488934,0.6163118,-0.2927194,-0.43931034,-0.3021274,-0.1685077,737.7007,740.35583,745.2237,742.2145,840.5451,836.6508,829.39325,1450.0,0.07696533203125,-0.0335693359375,1.02069091796875,-1.502838134765625,-0.9271240234375,0.3887939453125,0.8036506687647522,0.7272345802636913,0.5566716734616026,0.4921879693870252,11.793590348806712,11.040141143933434,12.608593567460602,10.711954795794291,0.0,0.0,0.0,0.0,0.0,0.0,0.0,0.0,75.42035,1.0,1.0,1.0,1.0,1.0,9.28,
2025-10-24 13:25:23.815,-0.03217108,-0.19635978,-0.16881207,0.267103,-0.054421425,-0.47266385,-0.30217686,0.20260227,0.43601325,-0.46342984,-0.16563056,0.6056097,0.40118554,-0.3877452,-0.24471933,0.5453256,-0.23499382,-0.46563968,-0.24817207,-0.19964795,734.2489,734.51447,736.8156,734.51447,868.6016,864.79584,835.94275,1450.0,0.08416748046875,-0.034912109375,1.01861572265625,-2.01873779296875,-2.01873779296875,0.9271240234375,0.8031929046563193,0.7258002527239349,0.5575872016784684,0.493317120854493,11.80222683165248,11.055949264477984,12.62843001215936,10.73795579715328,0.0,0.0,0.0,0.0,0.0,0.0,0.0,0.0,74.9648,1.0,1.0,1.0,1.0,1.0,9.28,
